RamanShift	Intensity
190	2335.661
191	2306.604
192	2264.325
193	2226.125
194	2184.17
195	2148.266
196	2111.325
197	2076.971
198	2044.092
199	2001.766
200	1964.826
201	1921.19
202	1883.648
203	1844.098
204	1805.564
205	1771.803
206	1730.62
207	1696.98
208	1660.527
209	1633.312
210	1611.686
211	1597.477
212	1589.068
213	1573.269
214	1556.904
215	1536.922
216	1514.398
217	1479.25
218	1427.356
219	1376.327
220	1330.213
221	1299.443
222	1264.231
223	1234.439
224	1201.347
225	1163.503
226	1131.471
227	1096.86
228	1074.656
229	1057.732
230	1049.387
231	1029.301
232	988.1989
233	947.427
234	917.024
235	900.4207
236	878.3502
237	856.2116
238	829.693
239	798.4234
240	768.7775
241	733.8422
242	708.3462
243	688.3078
244	679.1302
245	666.3577
246	645.4118
247	619.6046
248	582.5276
249	548.6694
250	521.7978
251	508.3631
252	491.4084
253	467.1118
254	445.3482
255	423.9197
256	411.9874
257	404.6323
258	405.1978
259	404.0002
260	398.2194
261	389.5469
262	377.7455
263	364.5357
264	350.973
265	336.8895
266	313.8397
267	282.6284
268	249.1787
269	215.2935
270	188.2406
271	163.0437
272	145.9766
273	122.1932
274	93.99098
275	64.42096
276	34.09793
277	13.62925
278	-3.034981
279	-4.182134
280	3.447683
281	19.43081
282	32.00257
283	31.31467
284	27.86709
285	36.95891
286	45.29952
287	41.452
288	22.86814
289	-4.908156
290	-38.37679
291	-58.71925
292	-51.09411
293	-25.60946
294	-15.0211
295	-15.51348
296	-11.12221
297	1.086897
298	17.08356
299	36.42787
300	50.03651
301	53.30358
302	44.46079
303	34.87191
304	27.27006
305	24.31342
306	30.82615
307	32.50253
308	7.406784
309	-23.19357
310	-30.19409
311	-10.55852
312	7.577399
313	10.464
314	5.064817
315	-4.92751
316	-16.9981
317	-21.27445
318	-19.06289
319	-22.11685
320	-32.66462
321	-45.67766
322	-61.03076
323	-64.85756
324	-45.93121
325	-12.51568
326	10.92317
327	17.4153
328	16.34432
329	12.1254
330	3.926448
331	-2.646445
332	-7.260358
333	-11.95918
334	-12.67728
335	-6.389387
336	7.61946
337	33.05459
338	72.56586
339	107.9723
340	124.3427
341	124.2257
342	140.9498
343	172.2327
344	194.3551
345	195.8452
346	186.8401
347	185.7014
348	182.9823
349	177.6542
350	168.6809
351	152.8054
352	131.7035
353	108.3576
354	83.53304
355	69.97668
356	71.81294
357	86.47425
358	89.58031
359	81.06641
360	79.14112
361	91.03044
362	102.0625
363	102.0843
364	93.78114
365	83.56773
366	71.86064
367	60.72187
368	52.11978
369	39.34558
370	18.66162
371	0.5213662
372	-12.59415
373	-15.66972
374	-16.80613
375	-12.84627
376	-4.789227
377	5.821781
378	13.8524
379	14.66633
380	12.68498
381	17.42762
382	23.43497
383	25.25236
384	22.02945
385	18.69372
386	17.41389
387	14.85615
388	7.533441
389	2.125957
390	5.305087
391	12.91119
392	11.97491
393	1.345227
394	-6.1398
395	-4.533644
396	-1.75202
397	-5.183265
398	-10.76426
399	-18.13502
400	-22.58136
401	-18.25361
402	-3.360878
403	18.08593
404	42.34394
405	66.38013
406	93.6102
407	114.1456
408	132.5683
409	140.7932
410	143.6717
411	139.6134
412	130.8439
413	120.522
414	111.7818
415	106.3066
416	106.572
417	108.6244
418	113.5705
419	118.9447
420	123.8645
421	130.2514
422	139.0611
423	147.1708
424	156.4299
425	161.024
426	162.8393
427	157.5905
428	144.3567
429	124.1161
430	95.75407
431	62.5102
432	34.28563
433	14.34913
434	7.770415
435	-2.039032
436	-6.4531
437	-2.368294
438	10.60335
439	25.35125
440	35.67684
441	42.14005
442	49.58064
443	49.84505
444	40.48605
445	25.4042
446	18.10091
447	21.80373
448	27.64564
449	31.29107
450	34.6868
451	36.3857
452	39.87877
453	51.97103
454	66.5118
455	72.64645
456	69.55652
457	72.5265
458	86.74768
459	106.2771
460	127.8082
461	146.7818
462	168.1209
463	179.9797
464	180.8472
465	170.437
466	168.2556
467	178.6022
468	182.5275
469	166.8794
470	156.3013
471	171.397
472	203.72
473	240.3546
474	271.6707
475	291.6819
476	293.7108
477	293.2197
478	298.0607
479	309.0078
480	332.4072
481	357.6803
482	376.8717
483	387.9866
484	405.0035
485	423.0921
486	440.2641
487	452.9455
488	456.0233
489	450.1498
490	432.5375
491	407.5338
492	380.1325
493	355.3257
494	339.0775
495	318.8097
496	298.6321
497	282.6099
498	273.2672
499	268.9221
500	262.1987
501	259.2745
502	256.4316
503	258.581
504	268.652
505	283.1696
506	289.8302
507	284.2008
508	279.3292
509	283.7048
510	288.2336
511	288.9649
512	282.5899
513	267.9344
514	246.74
515	218.7551
516	193.692
517	190.6379
518	216.0456
519	239.7912
520	238.0029
521	227.5034
522	225.933
523	226.3002
524	223.664
525	221.5066
526	224.7288
527	234.215
528	247.1598
529	260.5389
530	280.147
531	309.08
532	339.8206
533	378.0514
534	405.5496
535	424.602
536	425.4414
537	421.0249
538	409.5507
539	389.7179
540	363.4925
541	332.2694
542	295.9733
543	265.3624
544	231.2386
545	215.0399
546	214.9054
547	232.7835
548	246.639
549	251.26
550	252.8382
551	251.4421
552	242.8587
553	227.3705
554	205.004
555	174.3809
556	143.8175
557	112.5419
558	89.70754
559	71.3632
560	62.16691
561	47.01191
562	24.77167
563	11.95039
564	15.03293
565	28.02131
566	38.09406
567	48.90002
568	60.76137
569	70.40522
570	81.82349
571	90.17556
572	91.42841
573	83.35042
574	71.15388
575	58.63196
576	44.2867
577	26.55333
578	13.61154
579	5.210907
580	6.280631
581	10.90841
582	19.91945
583	28.8955
584	35.83854
585	43.1219
586	50.22284
587	58.64768
588	70.99271
589	78.79028
590	79.23981
591	71.96436
592	63.06315
593	54.23269
594	49.23067
595	49.39967
596	48.32981
597	46.10545
598	48.60018
599	57.63532
600	65.36348
601	65.77053
602	63.19815
603	65.53189
604	66.31676
605	59.47818
606	49.12444
607	43.22319
608	44.62526
609	51.16213
610	61.79598
611	70.11989
612	72.18798
613	69.5239
614	63.10246
615	60.18822
616	70.066
617	86.74436
618	101.163
619	108.0025
620	103.6763
621	89.81055
622	86.27297
623	97.48068
624	101.3611
625	88.06261
626	71.22378
627	60.2707
628	58.30115
629	66.10268
630	80.37697
631	89.5991
632	91.30769
633	86.1572
634	74.8036
635	65.73271
636	61.35213
637	51.81155
638	34.73116
639	23.69924
640	26.95974
641	36.62408
642	39.47714
643	44.1208
644	57.88732
645	75.60192
646	96.34662
647	111.4235
648	113.8829
649	100.0659
650	80.7902
651	61.71964
652	49.51778
653	49.75994
654	45.7988
655	18.40099
656	-5.803229
657	-7.939055
658	5.225848
659	11.3645
660	13.23134
661	12.40117
662	11.74866
663	22.76354
664	45.74264
665	66.34437
666	77.65984
667	86.65296
668	96.32335
669	114.3499
670	152.9628
671	188.5266
672	208.1133
673	210.5982
674	220.5821
675	229.0142
676	237.5778
677	238.659
678	221.8866
679	187.0149
680	149.1058
681	120.1161
682	99.25264
683	88.7919
684	79.10886
685	52.5826
686	29.45944
687	18.05488
688	22.91964
689	30.274
690	45.3275
691	70.72768
692	98.35297
693	115.6826
694	117.5209
695	125.9998
696	143.9123
697	144.0343
698	116.2345
699	80.74791
700	56.19503
701	42.22493
702	31.33096
703	32.04152
704	37.20343
705	45.38411
706	42.3885
707	36.00392
708	47.21991
709	73.12214
710	93.28656
711	100.5782
712	107.6381
713	116.9701
714	125.397
715	132.8372
716	137.2324
717	141.7359
718	135.8662
719	114.8512
720	87.66965
721	65.28247
722	52.45188
723	42.08036
724	38.71009
725	33.71864
726	29.00548
727	22.57834
728	16.8313
729	19.52286
730	32.55164
731	39.26916
732	31.18175
733	20.11803
734	14.90618
735	12.16593
736	9.441727
737	7.648928
738	3.530135
739	0.1658878
740	-2.644739
741	-1.829613
742	5.875229
743	16.6328
744	20.74887
745	15.7957
746	8.24653
747	1.221107
748	1.08193
749	10.88712
750	23.64221
751	33.21907
752	43.14036
753	55.40265
754	67.09666
755	80.74139
756	92.0338
757	109.9971
758	116.9521
759	99.27808
760	70.00562
761	57.97692
762	68.73087
763	92.4114
764	123.7983
765	149.1972
766	162.9686
767	194.6236
768	246.7353
769	307.9327
770	365.6399
771	410.106
772	440.3851
773	453.9179
774	468.1609
775	474.4009
776	487.1642
777	492.6011
778	485.4056
779	472.9897
780	474.6841
781	483.0023
782	479.1257
783	465.5356
784	457.1113
785	451.8909
786	431.1953
787	394.1789
788	346.449
789	298.5901
790	253.489
791	220.1421
792	199.34
793	187.5017
794	185.4714
795	182.2086
796	186.0013
797	195.9156
798	206.0136
799	211.0977
800	205.3118
801	190.4523
802	164.8291
803	131.2103
804	97.17898
805	61.58111
806	36.00478
807	13.05106
808	3.710149
809	8.764739
810	30.99144
811	63.42988
812	99.23158
813	140.8587
814	181.7102
815	213.7497
816	231.9229
817	236.5374
818	235.4882
819	224.5826
820	209.7966
821	195.2569
822	185.2901
823	184.44
824	186.8461
825	199.725
826	223.3317
827	252.0435
828	281.1093
829	305.0237
830	334.8123
831	358.9065
832	376.8739
833	381.7586
834	382.2212
835	381.8481
836	398.0067
837	434.765
838	482.9107
839	534.0909
840	590.0998
841	644.9863
842	703.5986
843	767.7326
844	828.1613
845	885.9298
846	929.5142
847	970.9191
848	992.1451
849	1005.363
850	993.1791
851	968.6843
852	922.8768
853	856.4813
854	787.8299
855	719.0013
856	666.3621
857	605.672
858	562.847
859	536.1304
860	527.9375
861	495.7651
862	449.852
863	403.2376
864	370.2877
865	339.7889
866	321.1035
867	308.7647
868	305.0202
869	301.6411
870	295.7833
871	288.7236
872	280.0661
873	265.3877
874	243.2755
875	214.1118
876	180.649
877	152.7968
878	137.2096
879	131.1395
880	125.0572
881	122.9144
882	119.8484
883	114.7975
884	101.6158
885	90.2546
886	89.3375
887	94.11257
888	89.50527
889	86.7457
890	96.12775
891	114.7819
892	137.0661
893	158.4664
894	179.528
895	196.2601
896	219.878
897	242.3042
898	260.0607
899	268.3457
900	279.9447
901	290.175
902	295.0047
903	292.3377
904	289.2581
905	286.2319
906	278.8271
907	266.8603
908	250.3944
909	231.6414
910	207.2493
911	180.6324
912	159.9824
913	150.7725
914	141.5606
915	126.8391
916	112.7219
917	101.2595
918	92.05966
919	83.90685
920	76.3931
921	67.41335
922	55.55251
923	36.34693
924	26.74207
925	37.10038
926	53.85781
927	60.17796
928	58.52845
929	51.02498
930	43.24887
931	44.29126
932	50.27946
933	55.10512
934	58.14175
935	54.99103
936	55.07456
937	75.44796
938	97.07689
939	97.0999
940	77.95163
941	56.38891
942	34.81123
943	14.37124
944	3.320144
945	-4.578967
946	-3.51268
947	-0.1030073
948	8.549621
949	24.66629
950	40.64269
951	47.08163
952	41.6325
953	36.08911
954	30.68723
955	24.38812
956	21.0648
957	24.11259
958	34.6513
959	49.17392
960	65.17608
961	85.66508
962	106.2993
963	126.5751
964	140.7695
965	148.4362
966	147.1439
967	145.9271
968	144.5005
969	133.761
970	115.4815
971	100.7278
972	95.20264
973	89.24135
974	82.28352
975	73.90944
976	64.78606
977	50.87418
978	34.36605
979	28.97021
980	39.54435
981	54.48739
982	67.20681
983	79.70285
984	89.70493
985	94.88613
986	93.61844
987	86.34759
988	74.71401
989	57.41956
990	38.31384
991	26.75916
992	29.2793
993	41.78386
994	59.33961
995	75.19484
996	82.64509
997	97.86604
998	126.0117
999	156.6383
1000	181.6218
1001	200.088
1002	209.0979
1003	196.9388
1004	163.0335
1005	123.5015
1006	93.28905
1007	62.04103
1008	29.16692
1009	8.036169
1010	4.019598
1011	6.682786
1012	7.591473
1013	14.40607
1014	26.75147
1015	27.83026
1016	9.831646
1017	-1.927121
1018	5.98035
1019	13.64762
1020	11.49936
1021	14.51105
1022	27.80306
1023	36.8432
1024	34.37575
1025	29.76992
1026	28.28312
1027	32.49271
1028	43.7141
1029	60.26255
1030	78.48563
1031	87.36034
1032	81.25394
1033	75.94093
1034	80.24415
1035	88.80671
1036	99.51479
1037	111.4642
1038	122.6211
1039	147.6377
1040	187.8217
1041	225.9324
1042	248.2741
1043	265.5645
1044	278.555
1045	286.4767
1046	290.6826
1047	302.7782
1048	324.0324
1049	342.5444
1050	351.3239
1051	353.9031
1052	349.8425
1053	338.935
1054	324.2156
1055	309.3875
1056	300.3269
1057	297.7537
1058	303.4968
1059	312.5149
1060	321.64
1061	329.9963
1062	334.848
1063	337.5301
1064	336.6308
1065	333.6955
1066	327.8368
1067	313.9949
1068	297.5153
1069	289.7805
1070	293.7888
1071	294.637
1072	295.9991
1073	309.1845
1074	333.0031
1075	361.2039
1076	384.4505
1077	400.6752
1078	406.6955
1079	421.3072
1080	437.3487
1081	450.9278
1082	455.8066
1083	453.4458
1084	447.4456
1085	455.1381
1086	466.3817
1087	469.0177
1088	456.4338
1089	421.3237
1090	388.6032
1091	386.8182
1092	408.6654
1093	425.1372
1094	434.2517
1095	430.2854
1096	418.6975
1097	412.6409
1098	409.8192
1099	410.3628
1100	405.0654
1101	381.203
1102	364.575
1103	374.8445
1104	394.8148
1105	407.5087
1106	410.9184
1107	402.3881
1108	389.1948
1109	379.2295
1110	378.698
1111	391.1234
1112	403.3011
1113	406.2089
1114	398.198
1115	379.6354
1116	361.0556
1117	349.8722
1118	339.7492
1119	332.1198
1120	329.6754
1121	335.3156
1122	352.1933
1123	376.0369
1124	396.1252
1125	401.7667
1126	386.4595
1127	355.6855
1128	343.9157
1129	350.1544
1130	345.425
1131	332.3572
1132	315.1944
1133	302.7693
1134	303.279
1135	311.4131
1136	306.1795
1137	293.7478
1138	281.8609
1139	273.5523
1140	270.6954
1141	268.6328
1142	257.6681
1143	241.2401
1144	218.4285
1145	204.5045
1146	208.3355
1147	214.5285
1148	206.4757
1149	196.0092
1150	190.0979
1151	178.5114
1152	158.5848
1153	133.734
1154	109.9019
1155	87.83469
1156	73.50003
1157	67.90641
1158	72.9585
1159	81.24445
1160	88.96767
1161	95.64735
1162	96.76262
1163	89.50189
1164	73.33497
1165	52.81931
1166	32.1304
1167	9.364122
1168	-3.342091
1169	-2.361677
1170	15.2824
1171	38.39934
1172	63.07467
1173	89.10975
1174	101.0943
1175	95.74194
1176	78.0909
1177	65.44378
1178	51.66939
1179	34.38486
1180	28.3825
1181	39.59608
1182	56.81874
1183	69.61308
1184	81.75626
1185	91.35281
1186	96.15489
1187	94.63043
1188	88.40518
1189	80.13355
1190	75.83826
1191	78.60365
1192	86.15738
1193	96.83
1194	105.5328
1195	112.517
1196	125.1699
1197	139.9003
1198	158.8721
1199	169.4514
1200	166.4318
1201	151.2674
1202	133.6883
1203	126.4921
1204	142.1032
1205	158.9207
1206	155.3915
1207	154.9611
1208	169.2901
1209	189.9054
1210	210.7446
1211	227.5815
1212	233.711
1213	222.9617
1214	198.3905
1215	187.9805
1216	195.7059
1217	201.6494
1218	205.4017
1219	207.6789
1220	211.698
1221	228.3104
1222	244.474
1223	244.4466
1224	234.8824
1225	233.5962
1226	231.6247
1227	221.9513
1228	221.2545
1229	240.119
1230	254.0377
1231	247.7691
1232	251.9107
1233	276.5357
1234	299.0054
1235	312.0748
1236	345.6747
1237	390.7601
1238	421.0798
1239	425.8094
1240	429.0951
1241	421.0271
1242	396.3585
1243	368.2038
1244	358.6101
1245	362.7413
1246	361.4
1247	362.6297
1248	366.3186
1249	373.1608
1250	382.2948
1251	385.1854
1252	377.4238
1253	369.9775
1254	368.9096
1255	378.4084
1256	396.2128
1257	408.025
1258	403.9893
1259	377.6141
1260	338.6111
1261	314.9204
1262	301.9331
1263	268.9789
1264	240.5426
1265	225.5508
1266	226.3415
1267	229.5063
1268	244.7223
1269	271.7128
1270	284.1152
1271	268.468
1272	256.9915
1273	260.1606
1274	255.9554
1275	245.5197
1276	249.5888
1277	264.5074
1278	264.0193
1279	259.1167
1280	282.8799
1281	309.3539
1282	303.5207
1283	282.5329
1284	274.5656
1285	263.6335
1286	241.7914
1287	226.3403
1288	225.5207
1289	216.4675
1290	195.1876
1291	186.7172
1292	196.2565
1293	202.8031
1294	206.9765
1295	218.1031
1296	232.8016
1297	248.3428
1298	259.9145
1299	271.5859
1300	273.9427
1301	266.9637
1302	252.4952
1303	236.747
1304	216.3232
1305	193.958
1306	175.1518
1307	167.5081
1308	170.3935
1309	184.1089
1310	200.0467
1311	211.5009
1312	212.035
1313	205.1156
1314	209.5171
1315	207.3547
1316	183.6513
1317	155.3339
1318	136.8345
1319	121.8926
1320	108.3592
1321	99.09383
1322	96.13375
1323	94.96707
1324	95.50761
1325	96.73309
1326	96.08744
1327	87.27315
1328	76.92937
1329	75.11687
1330	78.34349
1331	79.20486
1332	81.12405
1333	84.43483
1334	90.87422
1335	98.52603
1336	89.8614
1337	66.30857
1338	58.16773
1339	70.91774
1340	86.79649
1341	103.9468
1342	122.4675
1343	136.3396
1344	146.2272
1345	152.0692
1346	160.5743
1347	162.3476
1348	155.1905
1349	151.0197
1350	153.4917
1351	148.1437
1352	135.2431
1353	127.9909
1354	122.4775
1355	100.8619
1356	73.29586
1357	49.77599
1358	31.11314
1359	9.715907
1360	2.693505
1361	15.77959
1362	41.94866
1363	72.7403
1364	109.8022
1365	139.9607
1366	158.4389
1367	154.4054
1368	142.67
1369	116.7538
1370	74.45473
1371	43.24983
1372	42.9172
1373	59.64294
1374	76.83766
1375	89.86868
1376	91.32102
1377	82.30003
1378	67.48661
1379	68.21461
1380	72.37866
1381	43.4072
1382	6.650028
1383	-8.118751
1384	-3.202112
1385	11.50854
1386	24.92035
1387	27.17695
1388	33.86528
1389	48.49646
1390	74.20901
1391	100.7297
1392	111.5338
1393	110.5161
1394	127.8547
1395	142.2554
1396	141.0419
1397	126.3505
1398	104.6723
1399	86.46081
1400	79.25966
1401	68.69811
1402	60.70117
1403	70.09365
1404	95.21706
1405	125.0136
1406	146.552
1407	149.8203
1408	145.5877
1409	149.3883
1410	151.3462
1411	149.4361
1412	146.1068
1413	143.7119
1414	145.6376
1415	154.2495
1416	168.9348
1417	188.3166
1418	210.0793
1419	230.732
1420	248.4129
1421	262.6227
1422	271.3629
1423	270.7805
1424	261.392
1425	253.0449
1426	253.0365
1427	267.4384
1428	290.1801
1429	307.1822
1430	324.1883
1431	345.6819
1432	359.4392
1433	360.7624
1434	357.6357
1435	352.7043
1436	350.8049
1437	350.6485
1438	345.6226
1439	341.7259
1440	344.0147
1441	350.2329
1442	357.0015
1443	367.6551
1444	379.7054
1445	382.2288
1446	378.2925
1447	393.2181
1448	416.0872
1449	425.9977
1450	430.7169
1451	443.507
1452	450.5073
1453	447.9709
1454	465.6516
1455	502.4906
1456	514.1852
1457	500.299
1458	501.5607
1459	505.6116
1460	499.6929
1461	487.4146
1462	474.0861
1463	434.455
1464	372.162
1465	330.9943
1466	324.6913
1467	311.402
1468	302.5793
1469	295.2822
1470	304.9282
1471	336.3056
1472	368.5697
1473	381.5616
1474	367.1289
1475	328.1504
1476	296.6169
1477	279.7661
1478	264.8895
1479	249.4303
1480	216.9734
1481	186.1224
1482	168.9157
1483	153.9608
1484	140.0183
1485	124.8508
1486	112.0298
1487	95.66273
1488	88.0685
1489	94.82552
1490	102.4826
1491	96.552
1492	85.03046
1493	72.29578
1494	63.71378
1495	57.95692
1496	39.54285
1497	17.01054
1498	-3.529412
1499	-7.706617
1500	8.80691
1501	39.55906
1502	72.06434
1503	99.26931
1504	111.5345
1505	122.2608
1506	125.7587
1507	131.1456
1508	126.8212
1509	110.317
1510	93.47711
1511	85.60722
1512	84.62172
1513	89.15551
1514	85.42585
1515	81.76627
1516	86.06483
1517	106.8199
1518	144.9361
1519	172.2038
1520	174.0971
1521	165.2702
1522	149.7386
1523	141.3606
1524	137.0105
1525	129.7258
1526	116.2231
1527	94.78512
1528	82.25262
1529	82.75445
1530	71.41031
1531	55.87147
1532	51.37157
1533	58.98029
1534	70.58326
1535	93.45338
1536	123.9164
1537	140.3858
1538	135.0544
1539	129.0191
1540	121.9614
1541	115.1802
1542	111.2559
1543	110.3502
1544	119.5173
1545	137.8184
1546	150.9768
1547	155.1722
1548	164.7543
1549	167.4965
1550	153.8208
1551	142.6018
1552	148.108
1553	145.7501
1554	132.6006
1555	132.2202
1556	136.2728
1557	116.112
1558	94.70523
1559	94.20242
1560	94.86658
1561	89.55647
1562	100.2534
1563	124.2722
1564	140.0983
1565	144.1644
1566	142.884
1567	136.0011
1568	128.9231
1569	117.6279
1570	104.3423
1571	86.93057
1572	78.29816
1573	90.99425
1574	106.2502
1575	99.85372
1576	91.55303
1577	89.52776
1578	84.41375
1579	78.07299
1580	72.62142
1581	72.15308
1582	75.52408
1583	93.97271
1584	128.0061
1585	154.949
1586	163.8931
1587	172.9041
1588	168.8671
1589	146.8333
1590	119.5394
1591	102.5419
1592	91.246
1593	89.26533
1594	92.34652
1595	106.4819
1596	136.327
1597	165.8584
1598	180.4227
1599	188.5812
1600	189.7965
1601	178.4667
1602	155.8992
1603	131.6037
1604	105.8689
1605	77.64009
1606	64.31053
1607	70.32544
1608	65.81542
1609	56.07647
1610	60.79763
1611	75.00626
1612	88.62748
1613	95.95775
1614	93.31124
1615	90.02993
1616	88.85716
1617	92.00392
1618	96.03379
1619	95.6032
1620	97.13085
1621	102.8005
1622	106.7343
1623	102.1391
1624	78.1263
1625	50.58885
1626	38.49037
1627	35.6693
1628	37.09065
1629	38.94802
1630	39.77934
1631	41.07944
1632	37.94047
1633	26.19576
1634	13.66265
1635	7.329444
1636	10.17648
1637	23.36493
1638	41.30099
1639	59.98514
1640	77.45748
1641	82.17853
1642	71.1115
1643	52.07668
1644	33.71397
1645	23.99943
1646	19.35591
1647	7.841097
1648	2.78362
1649	10.24836
1650	33.46092
1651	59.82545
1652	62.53872
1653	56.13605
1654	63.86224
1655	69.24106
1656	66.90036
1657	60.64835
1658	55.04276
1659	56.47881
1660	64.05569
1661	74.02511
1662	74.82673
1663	65.47057
1664	65.81174
1665	70.69468
1666	67.1955
1667	55.53464
1668	39.03815
1669	34.265
1670	45.1991
1671	56.40144
1672	58.60052
1673	42.84118
1674	24.41809
1675	16.37992
1676	15.16512
1677	18.8504
1678	13.50559
1679	9.917656
1680	17.48664
1681	36.33592
1682	59.43838
