RamanShift	Intensity
190	3539.972
191	3505.064
192	3464.865
193	3426.245
194	3370.054
195	3310.256
196	3254.333
197	3213.555
198	3178.051
199	3126.586
200	3080.685
201	3026.857
202	2980.043
203	2928.284
204	2874.75
205	2827.106
206	2773.429
207	2730.082
208	2678.852
209	2636.489
210	2600.946
211	2576.428
212	2565.085
213	2553.552
214	2544.163
215	2517.451
216	2476.613
217	2428.642
218	2377.727
219	2330.498
220	2276.416
221	2235.747
222	2197.808
223	2172.584
224	2142.161
225	2100.91
226	2058.677
227	2006.98
228	1962.527
229	1917.995
230	1884.157
231	1844.611
232	1795.818
233	1750.103
234	1697.189
235	1657.118
236	1621.015
237	1597.45
238	1566.823
239	1522.735
240	1477.085
241	1422.453
242	1378.732
243	1339.319
244	1315.688
245	1293.545
246	1269.874
247	1242.917
248	1194.311
249	1149.294
250	1120.758
251	1112.989
252	1090.812
253	1043.927
254	999.4197
255	968.5775
256	954.7456
257	936.4343
258	922.1389
259	910.595
260	902.3691
261	891.3214
262	868.353
263	843.3145
264	823.1384
265	806.0532
266	770.3167
267	715.6662
268	661.8699
269	619.6695
270	591.1741
271	556.1879
272	527.7634
273	493.8412
274	459.6862
275	428.9816
276	402.8295
277	385.9911
278	364.308
279	350.4025
280	341.0092
281	337.4488
282	324.0589
283	292.2473
284	262.1003
285	247.9003
286	245.9398
287	232.205
288	209.5761
289	184.3951
290	159.6869
291	147.8356
292	155.0596
293	174.6844
294	183.3537
295	180.4047
296	170.1563
297	154.5695
298	140.6918
299	137.3053
300	136.6081
301	124.982
302	108.0473
303	91.65626
304	80.1886
305	76.87766
306	84.57491
307	92.523
308	81.4129
309	64.16911
310	60.50885
311	70.40489
312	72.68237
313	58.35047
314	41.97647
315	35.01821
316	34.68276
317	33.46027
318	33.33685
319	33.71201
320	34.15708
321	32.20245
322	23.99579
323	19.85479
324	32.66457
325	52.01523
326	54.85934
327	38.5409
328	24.69675
329	24.95194
330	29.10973
331	26.07495
332	23.79328
333	26.86797
334	36.03085
335	48.24521
336	61.26758
337	81.40537
338	114.2275
339	143.0579
340	156.6253
341	156.6262
342	169.1812
343	193.4423
344	216.0187
345	230.2823
346	234.2354
347	234.9312
348	224.6484
349	206.6814
350	185.1105
351	169.4754
352	165.4684
353	162.8156
354	151.0934
355	143.9604
356	148.9878
357	162.6906
358	171.5605
359	173.5094
360	176.5492
361	183.3351
362	184.1577
363	172.1058
364	156.8432
365	151.637
366	156.4167
367	162.1055
368	166.767
369	169.7584
370	170.0088
371	166.0598
372	157.2027
373	147.4822
374	143.2766
375	145.1027
376	146.3302
377	144.6603
378	134.5246
379	110.2071
380	86.56361
381	76.81202
382	80.53519
383	80.86293
384	78.26625
385	74.0117
386	68.15515
387	65.01027
388	65.58266
389	73.13103
390	90.80899
391	110.3951
392	116.6831
393	106.246
394	100.4476
395	109.5497
396	118.0911
397	115.2663
398	105.7721
399	94.22247
400	85.49036
401	86.31274
402	99.62285
403	119.5705
404	141.1806
405	164.9012
406	193.5825
407	221.2006
408	256.4521
409	284.8115
410	299.2316
411	292.0719
412	275.179
413	257.825
414	242.2552
415	233.1609
416	229.7976
417	218.753
418	206.6427
419	201.9405
420	208.3041
421	222.1576
422	241.1162
423	256.5838
424	263.8217
425	260.5806
426	256.8539
427	249.9356
428	240.0705
429	227.8522
430	203.9121
431	165.8585
432	130.817
433	107.2146
434	103.7867
435	109.6259
436	127.1573
437	141.7592
438	148.1598
439	151.7681
440	153.8141
441	154.1883
442	158.526
443	159.2932
444	150.2449
445	135.1544
446	123.2851
447	119.2966
448	126.017
449	144.1028
450	160.36
451	159.976
452	152.9493
453	154.3803
454	162.4679
455	173.543
456	188.6683
457	216.4388
458	257.8083
459	296.2969
460	323.8973
461	333.004
462	339.3743
463	327.5912
464	298.7156
465	258.7109
466	226.3194
467	212.9542
468	204.5859
469	189.658
470	190.5688
471	211.2034
472	252.4188
473	308.3264
474	362.0574
475	396.988
476	401.7442
477	405.1726
478	421.3658
479	440.8006
480	467.115
481	487.5271
482	498.2507
483	496.5455
484	496.8788
485	499.4146
486	508.1645
487	523.3257
488	529.3537
489	516.4378
490	497.2351
491	489.5075
492	485.4644
493	471.2075
494	452.454
495	433.3639
496	419.3261
497	411.9057
498	412.8445
499	414.1385
500	403.9083
501	394.5001
502	395.6308
503	404.0441
504	410.0715
505	411.3459
506	405.5986
507	392.8452
508	383.8524
509	386.4153
510	392.1477
511	394.5585
512	390.1596
513	372.5385
514	349.1314
515	332.4514
516	329.213
517	335.8184
518	350.9478
519	364.7432
520	367.6728
521	366.3518
522	371.1201
523	375.384
524	376.3006
525	373.7464
526	369.852
527	366.8103
528	368.9035
529	378.0654
530	398.9402
531	434.2469
532	469.7634
533	500.2286
534	516.7783
535	534.5712
536	542.7379
537	543.8629
538	534.9565
539	518.6811
540	497.7723
541	473.0715
542	444.4041
543	423.084
544	406.8297
545	403.8756
546	403.3375
547	407.7495
548	410.5066
549	409.9019
550	406.6391
551	400.6657
552	389.3017
553	372.4652
554	349.6367
555	316.6189
556	282.9397
557	246.9521
558	219.9119
559	198.5678
560	190.5195
561	185.095
562	181.5314
563	189.5545
564	212.2466
565	233.5204
566	237.1194
567	231.8335
568	238.5868
569	246.0886
570	242.5117
571	227.0219
572	207.4428
573	188.8933
574	175.1266
575	169.2095
576	166.9762
577	161.1095
578	154.8859
579	141.8467
580	133.9863
581	144.7974
582	168.7936
583	182.6499
584	180.8881
585	176.9063
586	174.606
587	172.4317
588	171.7421
589	169.9355
590	165.502
591	157.6564
592	143.8166
593	129.3758
594	118.3125
595	114.9804
596	116.4001
597	122.626
598	129.4202
599	133.476
600	133.6714
601	128.1001
602	124.8204
603	136.9871
604	149.0811
605	139.9188
606	118.1933
607	107.822
608	112.124
609	119.9236
610	127.6509
611	127.4637
612	114.9032
613	100.8162
614	92.32446
615	94.83742
616	111.3279
617	134.7135
618	147.0463
619	150.6051
620	162.8878
621	179.1797
622	190.1028
623	189.7441
624	178.315
625	157.1183
626	137.3866
627	129.9901
628	132.8242
629	138.3067
630	146.3412
631	147.8561
632	144.8427
633	145.5087
634	147.5313
635	142.8309
636	130.3804
637	117.5341
638	108.3432
639	104.3744
640	105.8873
641	113.0485
642	120.2814
643	131.4357
644	150.6215
645	171.1517
646	194.1535
647	208.1896
648	203.6407
649	178.2601
650	153.5616
651	138.6314
652	123.7845
653	105.6551
654	83.79784
655	47.66225
656	26.08328
657	35.09049
658	62.61158
659	73.10386
660	70.74207
661	68.05791
662	68.02657
663	79.90826
664	104.6965
665	132.612
666	157.5677
667	175.598
668	182.937
669	196.0155
670	237.6007
671	275.8542
672	292.6287
673	287.8295
674	289.4257
675	288.2103
676	281.8309
677	269.4093
678	250.5673
679	227.7684
680	197.7706
681	165.1171
682	140.986
683	133.8097
684	130.3639
685	112.3154
686	93.14687
687	75.15612
688	66.74166
689	63.42104
690	71.94903
691	92.36659
692	118.1337
693	130.6007
694	126.4566
695	135.8957
696	164.0232
697	176.3694
698	157.6006
699	130.1043
700	114.1271
701	104.1231
702	93.21539
703	88.79771
704	89.53973
705	91.00526
706	74.99636
707	53.89171
708	52.84955
709	73.70301
710	94.48612
711	108.3669
712	121.5072
713	132.7466
714	141.7562
715	149.5417
716	153.3077
717	155.1906
718	152.2985
719	147.3343
720	139.3349
721	128.6214
722	119.1977
723	113.7739
724	112.6796
725	106.9887
726	99.03796
727	91.93219
728	89.35201
729	96.67789
730	115.0916
731	132.21
732	140.5504
733	141.4351
734	137.3067
735	129.0382
736	122.4063
737	118.0885
738	117.5832
739	118.0235
740	111.3335
741	100.9832
742	92.43367
743	86.71101
744	77.79759
745	66.71565
746	52.17438
747	37.58349
748	30.93646
749	36.87387
750	53.54086
751	76.18027
752	98.75453
753	114.8479
754	125.5968
755	140.549
756	151.3394
757	167.4241
758	170.8086
759	148.7836
760	114.4741
761	93.78014
762	96.72038
763	116.7708
764	152.5395
765	191.4633
766	225.4085
767	278.0889
768	344.5728
769	407.9613
770	452.4719
771	485.7048
772	519.942
773	544.0056
774	568.8074
775	585.0292
776	605.0453
777	616.4822
778	623.3613
779	622.0457
780	624.8527
781	624.5084
782	614.3134
783	596.4564
784	582.7479
785	573.3665
786	550.7461
787	515.6805
788	474.9611
789	437.2735
790	394.6604
791	350.4249
792	316.9536
793	298.6583
794	295.1947
795	296.5546
796	298.1884
797	283.5949
798	267.2775
799	261.2087
800	260.6084
801	254.968
802	244.7148
803	224.8319
804	202.0208
805	181.0354
806	170.2786
807	167.8335
808	176.9125
809	187.7748
810	200.4102
811	227.7749
812	268.4536
813	313.5815
814	352.9192
815	382.0239
816	397.5283
817	397.3671
818	387.9362
819	374.5773
820	369.516
821	369.328
822	369.7659
823	373.9075
824	379.0259
825	388.1355
826	405.2007
827	423.4317
828	437.1307
829	446.6241
830	467.5745
831	490.358
832	503.7364
833	503.6512
834	503.6469
835	507.4933
836	525.1023
837	558.8488
838	603.1104
839	651.7176
840	713.2225
841	784.1483
842	858.9757
843	933.152
844	995.1274
845	1045.333
846	1077.729
847	1111.533
848	1129.156
849	1142.319
850	1134.632
851	1115.235
852	1076.92
853	1022.682
854	964.5465
855	902.3475
856	849.5102
857	787.6705
858	739.0544
859	698.9836
860	676.1871
861	640.3751
862	602.9938
863	565.9785
864	540.3617
865	514.0794
866	493.9817
867	476.7307
868	465.1779
869	450.8545
870	432.6614
871	415.3786
872	400.8574
873	379.3967
874	346.8798
875	312.5136
876	282.4819
877	262.459
878	254.0906
879	253.1523
880	248.2135
881	242.1588
882	229.9363
883	219.7738
884	216.4985
885	217.0423
886	211.4554
887	206.8435
888	204.3204
889	209.5415
890	225.1416
891	247.3171
892	271.4745
893	290.8528
894	306.2897
895	316.4419
896	338.4341
897	363.9701
898	383.0092
899	391.1221
900	403.0836
901	415.4023
902	428.808
903	437.4791
904	432.4067
905	412.187
906	390.643
907	374.6801
908	359.4152
909	346.4987
910	329.5164
911	308.6554
912	288.7252
913	273.5116
914	258.0394
915	240.9269
916	224.7734
917	210.405
918	197.3315
919	183.5256
920	176.2787
921	177.5085
922	179.2075
923	171.6205
924	164.4654
925	164.7754
926	163.336
927	150.7153
928	136.2591
929	127.3587
930	124.5721
931	121.5682
932	126.722
933	143.6681
934	161.9976
935	165.8382
936	163.9768
937	177.1575
938	191.5253
939	197.094
940	188.9475
941	168.4774
942	144.3443
943	132.757
944	133.3414
945	129.0575
946	122.3129
947	109.625
948	97.60706
949	93.87508
950	99.70007
951	106.1463
952	110.9998
953	108.6319
954	101.9722
955	103.6155
956	113.6292
957	123.7964
958	132.6527
959	144.3615
960	158.6286
961	184.769
962	216.7026
963	241.7876
964	251.0144
965	250.032
966	238.0235
967	225.2496
968	214.438
969	197.8804
970	178.8464
971	161.2339
972	151.1636
973	147.8337
974	151.1204
975	146.729
976	131.7868
977	119.3297
978	115.2751
979	120.6983
980	134.7842
981	147.8961
982	154.2009
983	163.6183
984	177.4374
985	188.5991
986	192.5972
987	185.7382
988	167.8002
989	147.4164
990	132.4724
991	124.2138
992	125.1868
993	127.2673
994	126.1708
995	133.1027
996	151.1195
997	177.8601
998	208.3404
999	236.359
1000	255.1194
1001	268.3532
1002	277.0693
1003	271.7473
1004	251.6691
1005	218.9156
1006	180.763
1007	142.263
1008	111.0691
1009	85.93742
1010	67.05617
1011	55.84593
1012	50.60714
1013	53.33427
1014	61.40312
1015	65.65381
1016	59.86357
1017	59.14392
1018	70.11005
1019	75.49464
1020	67.29998
1021	61.65114
1022	66.5181
1023	72.9647
1024	76.63817
1025	80.35329
1026	84.46539
1027	90.13584
1028	97.55914
1029	114.8939
1030	142.8791
1031	158.7904
1032	151.3362
1033	143.0913
1034	146.1735
1035	153.5118
1036	162.8805
1037	169.8634
1038	171.6714
1039	181.0836
1040	201.9594
1041	231.2957
1042	262.3474
1043	291.9572
1044	314.286
1045	333.7873
1046	350.2859
1047	371.0613
1048	393.4361
1049	404.4397
1050	398.4205
1051	390.2397
1052	385.068
1053	378.9931
1054	372.7365
1055	361.493
1056	348.5719
1057	346.243
1058	356.9388
1059	363.8289
1060	362.4172
1061	359.9594
1062	357.4341
1063	354.9532
1064	353.3743
1065	353.6128
1066	353.8553
1067	345.1914
1068	330.2067
1069	320.9074
1070	318.5817
1071	304.8181
1072	289.4522
1073	296.8969
1074	327.0314
1075	356.6956
1076	380.5883
1077	407.4232
1078	431.2927
1079	466.0226
1080	495.2086
1081	507.5875
1082	498.1852
1083	483.6232
1084	471.8614
1085	485.0691
1086	505.6971
1087	502.0967
1088	477.2916
1089	441.6641
1090	415.0971
1091	419.4776
1092	439.4857
1093	435.2313
1094	418.7941
1095	401.7176
1096	387.7303
1097	379.73
1098	375.2711
1099	363.3894
1100	352.6643
1101	342.4347
1102	349.9945
1103	384.5514
1104	422.5627
1105	442.5346
1106	447.7952
1107	444.4373
1108	431.6634
1109	416.0224
1110	407.2233
1111	412.4861
1112	414.9052
1113	405.6284
1114	390.2653
1115	372.528
1116	355.0827
1117	341.655
1118	322.7853
1119	301.7777
1120	298.0494
1121	317.6804
1122	341.3221
1123	360.091
1124	371.9042
1125	370.7599
1126	360.6372
1127	344.5763
1128	336.593
1129	336.3728
1130	326.8958
1131	316.5292
1132	322.1404
1133	337.3374
1134	342.5413
1135	336.7876
1136	326.2103
1137	312.2444
1138	299.7975
1139	289.7799
1140	277.9234
1141	266.1674
1142	250.3053
1143	235.4602
1144	221.1763
1145	209.4288
1146	196.3397
1147	184.5598
1148	173.1335
1149	163.8147
1150	156.4267
1151	150.0089
1152	143.6762
1153	143.8446
1154	151.7668
1155	156.4469
1156	152.7406
1157	145.4595
1158	137.7073
1159	134.0687
1160	135.9317
1161	136.5548
1162	132.6583
1163	116.3769
1164	94.44258
1165	85.77633
1166	88.40999
1167	77.75483
1168	64.14133
1169	60.7024
1170	72.45885
1171	97.97797
1172	128.2919
1173	154.7937
1174	164.4124
1175	156.2138
1176	137.9903
1177	130.3315
1178	120.9462
1179	102.5491
1180	87.97958
1181	83.69028
1182	89.22061
1183	101.8716
1184	112.5237
1185	115.493
1186	125.646
1187	144.7082
1188	159.277
1189	164.5944
1190	173.754
1191	184.1554
1192	188.9603
1193	188.294
1194	193.3477
1195	202.5763
1196	213.1598
1197	224.014
1198	239.607
1199	249.6308
1200	248.4909
1201	240.4896
1202	237.1069
1203	241.5105
1204	257.8164
1205	272.625
1206	273.5655
1207	273.4557
1208	279.9315
1209	288.7194
1210	297.746
1211	305.1648
1212	308.6458
1213	307.406
1214	304.0848
1215	315.3368
1216	337.0833
1217	346.5045
1218	344.5758
1219	353.7391
1220	369.2197
1221	384.3435
1222	393.6711
1223	397.5456
1224	396.4623
1225	400.2668
1226	403.122
1227	401.1928
1228	406.1414
1229	425.5827
1230	446.306
1231	459.0919
1232	466.812
1233	470.3284
1234	474.287
1235	481.4251
1236	501.4477
1237	527.6058
1238	539.0867
1239	535.2856
1240	547.6469
1241	563.4205
1242	557.3584
1243	539.8531
1244	537.0091
1245	542.7577
1246	548.9108
1247	551.0698
1248	542.6182
1249	534.6566
1250	536.0521
1251	545.8868
1252	561.9084
1253	573.7456
1254	577.7874
1255	596.7385
1256	628.7702
1257	650.7423
1258	648.6274
1259	620.064
1260	576.6493
1261	552.6742
1262	548.1268
1263	538.91
1264	533.5508
1265	524.6942
1266	523.3097
1267	532.9709
1268	549.3933
1269	567.2291
1270	572.2471
1271	557.8644
1272	544.4819
1273	540.7414
1274	538.7767
1275	537.6525
1276	533.763
1277	526.8697
1278	512.3597
1279	503.7672
1280	524.9458
1281	555.1534
1282	556.8671
1283	547.2246
1284	551.3436
1285	553.7247
1286	547.3633
1287	538.4342
1288	530.947
1289	517.6693
1290	501.0729
1291	498.0182
1292	512.4413
1293	527.4162
1294	540.985
1295	561.1376
1296	578.8549
1297	588.352
1298	591.0319
1299	604.9144
1300	611.5521
1301	600.9824
1302	582.3347
1303	566.0471
1304	546.5549
1305	526.2415
1306	517.9128
1307	527.6989
1308	544.8212
1309	565.6943
1310	593.2217
1311	612.2122
1312	607.0259
1313	584.2366
1314	576.6157
1315	561.4041
1316	516.1894
1317	478.6409
1318	474.899
1319	473.4294
1320	456.5763
1321	436.0483
1322	418.956
1323	407.7392
1324	407.2535
1325	410.3815
1326	416.9738
1327	418.8232
1328	424.4522
1329	447.8861
1330	474.4838
1331	491.1734
1332	492.4297
1333	478.913
1334	464.3807
1335	459.2516
1336	444.5104
1337	422.8988
1338	413.1472
1339	422.0462
1340	438.5888
1341	461.0992
1342	487.5593
1343	506.0172
1344	510.4687
1345	508.1741
1346	514.7971
1347	519.5252
1348	518.9075
1349	513.1113
1350	503.1289
1351	488.815
1352	473.8988
1353	459.7387
1354	449.9598
1355	437.9531
1356	429.0219
1357	420.0415
1358	415.6723
1359	413.8288
1360	418.1779
1361	428.0286
1362	443.7838
1363	462.4777
1364	486.7874
1365	506.1314
1366	508.2847
1367	489.236
1368	467.1285
1369	440.5436
1370	401.7161
1371	378.12
1372	383.9146
1373	404.3471
1374	421.8253
1375	438.4954
1376	447.337
1377	437.7371
1378	413.5515
1379	406.7909
1380	405.9405
1381	369.2735
1382	327.3424
1383	312.6776
1384	317.5097
1385	324.9146
1386	334.2988
1387	340.0725
1388	350.7399
1389	365.5489
1390	381.8843
1391	391.5634
1392	386.985
1393	375.0771
1394	376.4783
1395	385.9414
1396	398.5549
1397	399.2076
1398	379.7733
1399	369.0526
1400	378.5906
1401	383.7643
1402	383.7302
1403	393.7296
1404	408.1015
1405	417.1923
1406	420.9282
1407	426.742
1408	423.4107
1409	406.8226
1410	393.7756
1411	393.6332
1412	397.9585
1413	406.0346
1414	418.1248
1415	431.8178
1416	446.312
1417	456.8191
1418	464.0863
1419	467.3055
1420	469.6994
1421	477.4271
1422	491.9497
1423	502.1788
1424	505.543
1425	516.2244
1426	533.0259
1427	558.1588
1428	576.0996
1429	574.0495
1430	566.1166
1431	570.2969
1432	576.5172
1433	580.5965
1434	574.5139
1435	561.0572
1436	560.4446
1437	567.2491
1438	559.2766
1439	548.3661
1440	546.8432
1441	553.9038
1442	566.9244
1443	577.8112
1444	579.0668
1445	562.6099
1446	539.0464
1447	548.6972
1448	576.4178
1449	576.9879
1450	572.2354
1451	585.0513
1452	596.5552
1453	598.4656
1454	613.9472
1455	641.6608
1456	650.7106
1457	642.4932
1458	651.7847
1459	664.1271
1460	665.4768
1461	652.3494
1462	627.7338
1463	580.0087
1464	519.6631
1465	476.0244
1466	461.9663
1467	440.9149
1468	424.4514
1469	408.4039
1470	401.8041
1471	402.1618
1472	403.3752
1473	398.5362
1474	386.1494
1475	367.2176
1476	342.712
1477	321.2697
1478	309.5789
1479	300.7437
1480	276.6497
1481	246.1509
1482	216.7314
1483	197.2666
1484	192.285
1485	182.1168
1486	165.9001
1487	135.03
1488	112.7055
1489	118.8161
1490	130.0005
1491	121.5872
1492	113.4222
1493	111.8744
1494	113.9443
1495	112.6212
1496	89.55053
1497	56.07431
1498	29.08633
1499	19.6803
1500	30.47757
1501	50.27013
1502	68.72167
1503	93.63978
1504	116.2907
1505	132.8451
1506	139.9259
1507	151.8432
1508	155.3698
1509	147.4553
1510	131.9709
1511	114.1311
1512	92.26893
1513	73.04449
1514	58.40454
1515	54.41466
1516	50.04776
1517	66.76846
1518	109.7584
1519	145.2294
1520	155.8549
1521	160.9861
1522	158.0042
1523	151.5802
1524	143.9787
1525	143.2203
1526	136.8988
1527	118.3388
1528	104.0488
1529	100.3749
1530	93.50041
1531	89.84952
1532	97.61372
1533	112.3886
1534	123.2116
1535	143.3422
1536	174.2433
1537	187.8555
1538	176.0968
1539	159.9923
1540	150.0026
1541	161.6372
1542	179.5038
1543	184.3674
1544	187.5791
1545	191.5846
1546	189.7115
1547	182.6685
1548	179.8909
1549	175.183
1550	156.6546
1551	149.7652
1552	168.3119
1553	179.7376
1554	174.9343
1555	179.4807
1556	182.8457
1557	160.9852
1558	137.7845
1559	138.8806
1560	139.5103
1561	130.6195
1562	136.1048
1563	156.9623
1564	179.115
1565	190.8535
1566	184.9055
1567	169.8691
1568	158.5038
1569	147.7023
1570	139.7417
1571	126.8419
1572	119.9114
1573	131.3656
1574	146.0077
1575	144.6318
1576	131.3354
1577	112.4511
1578	103.5078
1579	109.1494
1580	115.353
1581	127.8938
1582	148.7868
1583	175.5547
1584	203.754
1585	229.4626
1586	241.4516
1587	238.7169
1588	220.7417
1589	201.1616
1590	184.9635
1591	178.2153
1592	180.8082
1593	190.7045
1594	194.6761
1595	197.3959
1596	214.9469
1597	227.4268
1598	221.0227
1599	218.9763
1600	227.9294
1601	229.0184
1602	221.713
1603	215.7715
1604	205.5858
1605	188.0552
1606	172.7614
1607	164.7037
1608	149.8685
1609	137
1610	139.8367
1611	150.6391
1612	152.402
1613	156.2325
1614	165.1136
1615	174.9983
1616	181.1712
1617	181.4912
1618	176.1991
1619	170.1889
1620	171.8377
1621	183.5228
1622	185.4497
1623	173.2983
1624	152.983
1625	137.0082
1626	137.3875
1627	140.6542
1628	137.4127
1629	129.6783
1630	123.8725
1631	135.4742
1632	151.1574
1633	152.3418
1634	142.5732
1635	128.1607
1636	129.6816
1637	149.7231
1638	173.5547
1639	191.6783
1640	196.2086
1641	200.1046
1642	209.7524
1643	207.9233
1644	192.9853
1645	173.8443
1646	158.135
1647	152.6545
1648	156.3915
1649	166.1641
1650	178.3478
1651	188.4935
1652	195.3564
1653	197.0369
1654	196.7415
1655	191.9624
1656	185.6863
1657	188.1924
1658	198.4045
1659	206.9479
1660	215.8266
1661	226.7028
1662	227.7913
1663	218.8148
1664	220.1086
1665	224.6517
1666	217.3769
1667	200.5956
1668	180.1781
1669	170.8767
1670	178.5394
1671	190.2156
1672	195.6151
1673	180.4627
1674	171.3377
1675	183.077
1676	192.3921
1677	193.3082
1678	185.6964
1679	178.5333
1680	183.5989
1681	191.9322
1682	198.0485
1683	198.0854
1684	196.0762
