RamanShift	Intensity
190	3096.692
191	3052.137
192	3008.904
193	2975.031
194	2927.876
195	2881.352
196	2839.094
197	2808.815
198	2780.793
199	2735.448
200	2692.566
201	2646.869
202	2608.376
203	2557.054
204	2492.007
205	2430.32
206	2368.716
207	2323.694
208	2274.968
209	2239.204
210	2209.398
211	2186.741
212	2169.392
213	2139.631
214	2108.369
215	2071.509
216	2033.893
217	1984.016
218	1917.518
219	1855.66
220	1795.722
221	1758.593
222	1726.786
223	1709.559
224	1685.537
225	1645.765
226	1602.69
227	1550.397
228	1507.214
229	1470.918
230	1450.388
231	1422.391
232	1377.922
233	1337.58
234	1303.732
235	1284.103
236	1260.435
237	1237.632
238	1206.627
239	1165.447
240	1121.904
241	1069.361
242	1026.227
243	986.1732
244	960.7707
245	937.3935
246	913.8284
247	889.9236
248	850.1539
249	813.6417
250	784.0668
251	768.0953
252	746.8269
253	716.1807
254	688.8192
255	664.6593
256	650.9038
257	636.2996
258	626.7424
259	618.4163
260	611.0215
261	601.5669
262	584.614
263	566.0044
264	550.1857
265	534.371
266	499.2657
267	444.9516
268	392.8732
269	356.383
270	332.8649
271	297.2932
272	264.2681
273	227.5109
274	194.1329
275	168.1553
276	150.0403
277	144.7854
278	138.606
279	139.9766
280	144.6067
281	151.6626
282	156.0319
283	154.0171
284	146.6628
285	138.4731
286	125.752
287	102.9491
288	74.07034
289	47.20566
290	27.34351
291	21.69817
292	29.93825
293	48.46693
294	56.61757
295	55.06427
296	52.52239
297	51.10616
298	50.65011
299	53.22127
300	55.29772
301	51.85665
302	45.86284
303	44.22202
304	48.55329
305	56.40809
306	66.9493
307	70.69768
308	56.438
309	34.43334
310	23.52688
311	27.24891
312	32.10015
313	32.52383
314	32.76105
315	34.50185
316	35.10326
317	32.49052
318	26.82638
319	18.40141
320	9.29216
321	5.964639
322	12.20019
323	25.95548
324	42.7063
325	59.32428
326	74.15115
327	83.75678
328	91.21113
329	98.22357
330	99.07247
331	93.23675
332	83.5127
333	75.79321
334	75.09149
335	87.01014
336	112.0057
337	140.012
338	161.59
339	174.6419
340	182.2853
341	186.8766
342	211.0589
343	252.0652
344	288.1123
345	306.3905
346	309.9455
347	312.3783
348	306.0326
349	302.5976
350	299.8255
351	292.841
352	281.7066
353	267.7461
354	250.2363
355	241.0083
356	250.5192
357	268.7337
358	267.0052
359	244.0586
360	223.0175
361	215.269
362	209.5842
363	196.0843
364	181.5327
365	164.3725
366	149.5774
367	136.743
368	128.3393
369	116.981
370	97.84649
371	80.47708
372	65.74851
373	59.71452
374	55.42253
375	57.76826
376	69.16858
377	88.70273
378	101.7814
379	95.94143
380	85.40453
381	90.79536
382	105.0006
383	118.0032
384	126.5212
385	132.3524
386	134.8082
387	129.8964
388	114.7693
389	101.4987
390	108.0714
391	123.8337
392	118.5606
393	90.12051
394	69.40244
395	70.67636
396	79.30571
397	81.01487
398	79.82924
399	72.02662
400	63.6774
401	67.78708
402	86.94236
403	110.6054
404	131.379
405	152.4043
406	182.8866
407	208.8718
408	229.9427
409	237.1824
410	235.5358
411	224.4505
412	211.7755
413	204.3745
414	202.2533
415	204.9765
416	210.1913
417	208.6493
418	202.503
419	200.7463
420	205.0364
421	207.0119
422	201.6373
423	197.6694
424	203.5325
425	212.3225
426	216.1989
427	213.1458
428	205.5439
429	193.8928
430	175.8578
431	153.2491
432	130.1478
433	105.5832
434	90.26405
435	80.87435
436	85.27483
437	101.3223
438	125.9328
439	147.2499
440	154.9201
441	155.9084
442	162.7443
443	165.3416
444	162.4826
445	153.9252
446	144.0838
447	135.6479
448	133.3118
449	139.6343
450	147.7059
451	149.7019
452	148.2392
453	146.8241
454	144.693
455	140.8925
456	138.4054
457	144.9152
458	163.2342
459	189.0501
460	217.9157
461	244.1673
462	274.722
463	292.8154
464	296.8432
465	283.4176
466	271.5238
467	267.063
468	258.8342
469	240.7585
470	230.743
471	236.2697
472	261.0526
473	299.7843
474	344.1788
475	382.5926
476	404.7773
477	427.1442
478	454.682
479	478.5967
480	502.6156
481	519.5105
482	541.0683
483	555.3988
484	563.0615
485	560.8603
486	559.8881
487	563.3212
488	561.1139
489	549.8533
490	531.0444
491	506.4995
492	481.8534
493	456.5335
494	439.4736
495	425.3801
496	418.2511
497	414.8148
498	413.1664
499	410.8637
500	400.4926
501	393.3941
502	398.3262
503	412.0811
504	424.5014
505	432.5392
506	436.8117
507	435.8254
508	433.2862
509	432.881
510	431.028
511	429.6225
512	420.6672
513	394.7542
514	361.1416
515	331.1721
516	315.516
517	316.8321
518	336.4093
519	354.2397
520	352.0352
521	344.8059
522	348.7254
523	355.1335
524	355.6959
525	353.1928
526	355.046
527	362.6725
528	374.3406
529	388.1382
530	415.9116
531	465.5253
532	516.4888
533	563.969
534	592.4524
535	621.3959
536	633.0175
537	629.2065
538	606.5165
539	577.0989
540	548.766
541	516.6049
542	475.3237
543	444.814
544	423.1495
545	422.5639
546	429.3049
547	443.6616
548	452.3866
549	450.4701
550	440.7245
551	424.3035
552	402.5803
553	378.8567
554	352.1102
555	312.1744
556	275.8076
557	242.4068
558	224.3211
559	216.4723
560	221.4321
561	220.8231
562	208.7802
563	197.1806
564	190.8869
565	187.9339
566	182.7163
567	182.0233
568	189.7266
569	200.5218
570	201.7413
571	193.8134
572	189.3731
573	191.2113
574	192.3562
575	190.5812
576	179.4078
577	152.9619
578	125.8556
579	107.663
580	105.1781
581	113.469
582	131.3081
583	141.5935
584	141.1446
585	142.8776
586	150.2453
587	161.2921
588	177.2791
589	187.0082
590	184.9056
591	171.6672
592	154.7117
593	139.8503
594	133.7225
595	141.1145
596	157.6495
597	180.2479
598	200.8489
599	212.6102
600	218.2896
601	223.2297
602	220.7167
603	216.4968
604	202.4151
605	171.4302
606	136.3246
607	113.876
608	113.1693
609	122.8838
610	140.3913
611	154.3077
612	156.3347
613	156.3486
614	161.845
615	170.3349
616	184.7868
617	198.1686
618	206.2483
619	205.4341
620	200.3346
621	190.9387
622	182.2899
623	176.5052
624	162.4349
625	136.6273
626	112.8785
627	100.0033
628	99.97984
629	104.6644
630	117.092
631	128.1933
632	136.7197
633	144.1053
634	147.3058
635	149.929
636	150.513
637	142.6911
638	125.4003
639	112.5859
640	114.6523
641	124.1816
642	129.0527
643	137.3286
644	156.2905
645	177.8579
646	197.9864
647	209.0092
648	211.815
649	203.1104
650	187.691
651	168.8345
652	152.1759
653	142.7063
654	130.0092
655	100.1816
656	75.63384
657	68.51583
658	74.21878
659	67.2794
660	57.79547
661	54.43656
662	62.06234
663	81.80496
664	111.6587
665	138.2285
666	154.0053
667	172.8387
668	201.7993
669	235.4724
670	276.5491
671	306.8189
672	329.062
673	331.4693
674	331.3384
675	321.2374
676	307.6649
677	289.7223
678	258.3485
679	219.1173
680	184.0832
681	163.5823
682	154.6356
683	154.43
684	157.9884
685	153.7802
686	143.8526
687	125.3652
688	106.1173
689	88.99777
690	84.16273
691	96.26528
692	120.5032
693	126.9751
694	113.7549
695	118.9015
696	150.6457
697	171.6656
698	163.9658
699	142.8245
700	121.9158
701	102.8074
702	87.08788
703	83.28386
704	92.06627
705	104.107
706	90.49677
707	65.12193
708	62.83371
709	86.65446
710	115.0022
711	139.5974
712	160.8647
713	174.0126
714	180.2873
715	182.5926
716	176.7506
717	165.6154
718	150.7288
719	135.7444
720	123.0212
721	106.9322
722	98.45466
723	100.8941
724	114.9485
725	131.3208
726	143.0911
727	141.7483
728	126.4876
729	119.0077
730	127.5638
731	134.9798
732	133.5202
733	127.5295
734	119.8003
735	109.4555
736	94.70985
737	87.86471
738	98.88371
739	118.1432
740	125.3163
741	123.4145
742	127.304
743	131.4044
744	125.83
745	109.9485
746	92.7363
747	79.21962
748	69.12218
749	65.447
750	75.2643
751	99.17439
752	126.4743
753	146.8708
754	160.0017
755	172.4545
756	180.2413
757	197.959
758	207.5899
759	195.0459
760	172.7358
761	168.9444
762	187.2269
763	220.278
764	258.9988
765	286.4278
766	295.7873
767	324.8913
768	379.3876
769	442.5152
770	499.4265
771	546.4849
772	585.5528
773	612.6655
774	645.463
775	667.1396
776	689.0996
777	695.1351
778	686.689
779	671.3377
780	675.2267
781	690.6262
782	698.2973
783	696.4355
784	692.9825
785	683.317
786	655.0427
787	609.431
788	553.7575
789	500.987
790	451.2687
791	413.132
792	388.053
793	372.0728
794	368.8882
795	369.9867
796	371.1744
797	359.2817
798	342.2654
799	327.4417
800	311.9
801	287.7918
802	260.9169
803	229.3065
804	202.2423
805	172.5029
806	154.2686
807	151.5455
808	168.4634
809	187.2181
810	204.7824
811	234.7799
812	274.2372
813	311.775
814	337.7949
815	357.1017
816	372.1378
817	380.2007
818	385.563
819	387.2327
820	390.4531
821	393.7092
822	398.5231
823	405.8018
824	417.3544
825	432.1288
826	452.5575
827	472.3165
828	491.6109
829	507.349
830	532.9413
831	555.951
832	563.7948
833	554.8065
834	550.4511
835	557.6082
836	584.2126
837	631.2823
838	688.6786
839	746.1607
840	809.7274
841	874.6089
842	946.6758
843	1028.142
844	1100.587
845	1159.983
846	1201.677
847	1246.777
848	1271.865
849	1287.144
850	1276.67
851	1256.544
852	1214.871
853	1152.171
854	1084.409
855	1014.883
856	957.8809
857	892.1799
858	838.5929
859	785.8796
860	744.9813
861	688.7526
862	633.282
863	577.972
864	539.4758
865	499.9757
866	470.7285
867	448.0909
868	438.787
869	442.2777
870	456.1766
871	460.5844
872	445.4879
873	420.4505
874	391.218
875	352.7627
876	307.3941
877	270.8373
878	253.3189
879	247.4278
880	236.689
881	233.3908
882	238.566
883	239.4322
884	217.7436
885	192.5616
886	183.5883
887	186.6168
888	182.885
889	185.5318
890	202.6147
891	226.6008
892	245.1053
893	258.0137
894	279.2684
895	302.7114
896	328.9955
897	353.3968
898	383.0037
899	409.4087
900	436.1293
901	453.7867
902	465.3923
903	464.943
904	452.2266
905	429.3754
906	408.5886
907	396.3474
908	382.1209
909	365.5674
910	343.7044
911	318.6561
912	296.5648
913	282.5899
914	274.7458
915	271.6236
916	269.9592
917	265.6176
918	262.317
919	261.1932
920	255.5266
921	241.1078
922	223.5426
923	207.089
924	193.1262
925	180.1176
926	170.8715
927	161.4853
928	153.9183
929	141.8995
930	136.7062
931	142.198
932	156.6186
933	171.0847
934	185.6748
935	201.9007
936	213.896
937	228.1512
938	231.334
939	222.2594
940	195.8788
941	153.2106
942	108.6398
943	74.05721
944	59.95923
945	45.69236
946	40.77685
947	34.63256
948	36.30558
949	52.44219
950	78.1846
951	101.872
952	116.0744
953	122.4005
954	119.2839
955	120.2734
956	125.0788
957	130.6944
958	137.1714
959	147.9576
960	162.7459
961	186.096
962	214.2703
963	245.3411
964	269.8944
965	280.285
966	271.8682
967	262.3226
968	254.1777
969	238.7841
970	219.107
971	201.768
972	192.1031
973	180.7253
974	168.4144
975	155.3947
976	144.0225
977	130.6585
978	117.881
979	119.1905
980	137.5151
981	157.0912
982	169.0921
983	182.8379
984	198.5973
985	213.1954
986	222.6909
987	218.7167
988	198.9299
989	175.8547
990	159.1915
991	146.6024
992	140.1457
993	132.3664
994	121.0396
995	121.6482
996	140.2267
997	171.1469
998	206.7092
999	240.425
1000	263.7535
1001	282.302
1002	297.0191
1003	288.9099
1004	253.9985
1005	206.8502
1006	163.0159
1007	126.9268
1008	105.4598
1009	86.27165
1010	62.43513
1011	44.31807
1012	35.11583
1013	35.93074
1014	44.51548
1015	47.16517
1016	35.41161
1017	31.86954
1018	46.66226
1019	58.91127
1020	57.89673
1021	61.06216
1022	75.36382
1023	87.86795
1024	92.06004
1025	91.3195
1026	87.81158
1027	89.29649
1028	100.064
1029	113.878
1030	125.8616
1031	123.3181
1032	101.7978
1033	90.48795
1034	104.6544
1035	125.5669
1036	143.149
1037	155.4323
1038	159.0073
1039	173.6967
1040	205.2084
1041	240.0665
1042	266.6387
1043	285.1373
1044	292.5211
1045	298.5511
1046	307.3615
1047	322.6871
1048	342.8263
1049	358.93
1050	365.0974
1051	366.1173
1052	362.519
1053	354.5303
1054	344.1
1055	330.3148
1056	317.1741
1057	306.9707
1058	304.1991
1059	307.9822
1060	318.0525
1061	330.3564
1062	341.3919
1063	351.1024
1064	355.1808
1065	352.9183
1066	342.8758
1067	326.0829
1068	308.445
1069	296.4001
1070	295.7572
1071	299.7373
1072	310.0906
1073	324.9604
1074	343.9517
1075	371.9372
1076	398.0551
1077	413.5856
1078	416.6219
1079	431.2519
1080	448.8722
1081	459.7371
1082	461.7962
1083	464.1654
1084	468.2062
1085	485.8417
1086	502.635
1087	504.2735
1088	486.5945
1089	454.0514
1090	424.3716
1091	418.3246
1092	429.3358
1093	428.4868
1094	424.942
1095	421.3241
1096	420.2247
1097	425.7571
1098	428.6342
1099	418.977
1100	404.2104
1101	390.7054
1102	386.8146
1103	396.7102
1104	414.4992
1105	431.2585
1106	442.8548
1107	446.4317
1108	438.1415
1109	419.748
1110	401.065
1111	391.0873
1112	383.6741
1113	376.4252
1114	362.0851
1115	339.2595
1116	321.3416
1117	315.1118
1118	307.457
1119	297.0706
1120	291.9817
1121	295.6581
1122	305.2311
1123	318.1078
1124	330.2054
1125	335.9423
1126	330.5252
1127	318.3223
1128	324.3638
1129	343.6128
1130	351.4817
1131	347.2651
1132	345.9681
1133	341.667
1134	326.0379
1135	303.862
1136	284.5964
1137	268.9379
1138	245.3064
1139	226.8541
1140	217.2786
1141	214.4897
1142	204.7175
1143	191.5267
1144	171.404
1145	155.0945
1146	146.9998
1147	146.556
1148	149.3031
1149	146.5442
1150	130.9309
1151	115.7143
1152	109.5829
1153	98.41254
1154	78.77222
1155	56.52507
1156	38.7543
1157	29.3536
1158	32.66028
1159	42.29361
1160	54.22747
1161	61.87366
1162	62.97183
1163	68.77894
1164	74.72848
1165	71.47508
1166	57.87607
1167	38.23759
1168	20.53073
1169	11.98835
1170	18.97129
1171	35.64949
1172	59.17247
1173	81.53265
1174	97.10796
1175	107.7401
1176	110.7253
1177	115.3017
1178	109.2082
1179	88.28293
1180	68.39922
1181	62.13567
1182	64.34148
1183	71.48552
1184	83.79258
1185	97.81892
1186	113.3434
1187	126.6784
1188	132.896
1189	129.3823
1190	125.2461
1191	121.393
1192	113.5862
1193	107.146
1194	109.7995
1195	124.6454
1196	148.7789
1197	176.874
1198	205.2692
1199	221.0847
1200	225.7582
1201	219.2845
1202	217.9346
1203	218.7537
1204	223.5308
1205	227.5059
1206	225.6994
1207	233.3369
1208	257.3075
1209	290.3116
1210	323.7343
1211	350.6065
1212	362.1061
1213	360.9051
1214	348.1425
1215	342.0785
1216	342.2839
1217	329.7433
1218	311.5407
1219	303.1241
1220	310.1021
1221	329.9894
1222	349.9046
1223	347.2103
1224	335.3211
1225	338.8672
1226	349.9982
1227	362.6358
1228	377.6006
1229	392.8506
1230	405.7206
1231	414.8014
1232	426.88
1233	442.7063
1234	442.5724
1235	425.7757
1236	431.6575
1237	463.025
1238	490.5258
1239	506.0775
1240	519.4326
1241	522.6416
1242	515.5238
1243	506.1388
1244	516.0104
1245	532.3836
1246	537.4322
1247	537.7733
1248	540.1893
1249	545.1887
1250	554.546
1251	563.9995
1252	570.044
1253	569.4715
1254	564.5107
1255	583.8958
1256	625.8039
1257	650.8566
1258	642.1293
1259	602.2952
1260	546.5047
1261	515.5292
1262	505.6661
1263	477.3993
1264	454.5055
1265	438.8266
1266	444.0331
1267	468.0195
1268	499.1699
1269	523.8806
1270	528.2452
1271	507.248
1272	493.1628
1273	498.829
1274	504.0293
1275	507.699
1276	523.5271
1277	544.5461
1278	552.1219
1279	549.9313
1280	566.0043
1281	575.9455
1282	552.0547
1283	515.6139
1284	494.4266
1285	482.9619
1286	474.931
1287	476.955
1288	487.4131
1289	496.3665
1290	499.0852
1291	510.3103
1292	526.8473
1293	530.2375
1294	521.1066
1295	520.2955
1296	525.9269
1297	530.8221
1298	536.5005
1299	545.6048
1300	554.0204
1301	560.2364
1302	560.1459
1303	553.506
1304	535.9681
1305	510.5698
1306	494.8033
1307	498.0729
1308	506.9186
1309	519.2746
1310	535.293
1311	546.1683
1312	541.5033
1313	528.1884
1314	528.9855
1315	528.1417
1316	508.0087
1317	494.2319
1318	505.2328
1319	508.2253
1320	487.57
1321	464.3944
1322	449.0618
1323	431.9601
1324	420.5017
1325	420.4463
1326	432.4363
1327	439.4284
1328	449.5446
1329	477.1834
1330	501.9139
1331	507.1129
1332	500.8234
1333	494.4153
1334	486.1204
1335	478.8335
1336	465.095
1337	448.4594
1338	437.9278
1339	441.383
1340	458.7197
1341	485.0598
1342	507.7301
1343	522.3591
1344	533.9025
1345	537.1525
1346	536.6511
1347	533.08
1348	529.7698
1349	516.2553
1350	494.0198
1351	476.0998
1352	471.809
1353	479.145
1354	494.0553
1355	501.0695
1356	499.928
1357	497.3198
1358	492.6812
1359	490.0953
1360	482.2518
1361	466.4644
1362	459.5696
1363	469.1892
1364	490.4049
1365	513.0398
1366	518.6243
1367	504.04
1368	490.7951
1369	472.4793
1370	438.0804
1371	411.6107
1372	407.6898
1373	423.2429
1374	448.477
1375	467.224
1376	467.9964
1377	459.1253
1378	445.4118
1379	445.0121
1380	447.9337
1381	422.9091
1382	391.6413
1383	378.5912
1384	383.9666
1385	400.6692
1386	415.9667
1387	419.6908
1388	431.08
1389	450.7285
1390	467.5296
1391	473.1071
1392	467.2336
1393	452.2483
1394	441.3619
1395	433.578
1396	426.9691
1397	418.1181
1398	403.733
1399	399.8455
1400	410.6566
1401	411.8086
1402	403.9805
1403	410.0998
1404	424.2336
1405	431.7022
1406	429.2994
1407	417.8413
1408	406.2032
1409	403.8611
1410	409.3911
1411	421.4992
1412	437.6618
1413	455.5435
1414	480.841
1415	502.4097
1416	510.2906
1417	506.1888
1418	507.1024
1419	508.9641
1420	512.4371
1421	521.7715
1422	536.4794
1423	550.6218
1424	559.0842
1425	566.0645
1426	569.5933
1427	575.2919
1428	579.4221
1429	580.9066
1430	582.8987
1431	589.1575
1432	593.0543
1433	591.6011
1434	585.4928
1435	577.8524
1436	577.257
1437	582.0585
1438	580.6334
1439	580.9813
1440	590.0222
1441	606.5668
1442	627.0953
1443	643.9534
1444	649.601
1445	640.2827
1446	621.949
1447	623.5847
1448	635.5594
1449	629.4133
1450	618.2897
1451	614.0168
1452	617.6317
1453	629.598
1454	661.7142
1455	703.8123
1456	717.1339
1457	700.832
1458	702.585
1459	704.0812
1460	686.4743
1461	658.2727
1462	629.9267
1463	585.3614
1464	532.1883
1465	503.6333
1466	507.8629
1467	499.2117
1468	489.5673
1469	490.3799
1470	496.0801
1471	496.648
1472	495.8826
1473	493.7228
1474	474.4113
1475	440.8398
1476	415.1604
1477	400.8184
1478	379.1388
1479	355.2375
1480	323.7252
1481	294.6599
1482	274.3281
1483	262.9042
1484	261.5478
1485	262.0266
1486	260.0009
1487	243.1534
1488	223.4434
1489	215.8291
1490	208.7481
1491	192.4503
1492	182.1902
1493	184.2618
1494	195.1922
1495	203.217
1496	180.5557
1497	139.4813
1498	104.9261
1499	88.73887
1500	96.04079
1501	112.7743
1502	127.4232
1503	144.8145
1504	158.9048
1505	171.8371
1506	174.2105
1507	165.7921
1508	151.559
1509	141.7774
1510	136.0884
1511	135.5578
1512	133.1373
1513	128.142
1514	119.2197
1515	112.9539
1516	111.2144
1517	128.912
1518	169.6119
1519	199.2084
1520	201.6486
1521	199.257
1522	192.8719
1523	188.8358
1524	182.0114
1525	166.5429
1526	149.4532
1527	136.763
1528	139.4211
1529	155.0481
1530	150.2255
1531	132.5854
1532	130.347
1533	145.0756
1534	172.9012
1535	197.0496
1536	203.8918
1537	204.2532
1538	199.9415
1539	195.7912
1540	193.5355
1541	194.611
1542	196.6199
1543	195.4666
1544	207.2251
1545	231.7421
1546	231.3535
1547	209.0328
1548	208.8828
1549	220.0037
1550	220.5292
1551	224.5853
1552	238.0177
1553	242.2446
1554	234.3073
1555	240.5782
1556	245.7554
1557	213.164
1558	177.1479
1559	174.0748
1560	175.1689
1561	168.776
1562	176.0802
1563	197.9422
1564	222.6083
1565	240.1341
1566	246.3666
1567	241.4817
1568	232.8345
1569	218.4797
1570	201.837
1571	177.5931
1572	162.0449
1573	171.1438
1574	185.2454
1575	176.886
1576	165.0522
1577	159.7766
1578	164.3743
1579	177.2273
1580	186.4441
1581	194.1565
1582	205.0676
1583	223.0526
1584	248.4643
1585	265.5441
1586	267.2879
1587	268.346
1588	261.3723
1589	242.8502
1590	224.1553
1591	215.8289
1592	207.9524
1593	203.1418
1594	210.9072
1595	231.225
1596	257.4874
1597	276.4288
1598	279.0356
1599	277.3923
1600	276.3279
1601	271.5406
1602	263.6184
1603	253.8033
1604	246.2177
1605	243.5837
1606	241.0039
1607	236.3897
1608	232.2364
1609	230.2891
1610	230.1039
1611	230.7133
1612	228.9103
1613	230.0608
1614	235.9139
1615	244.0974
1616	248.9047
1617	241.6714
1618	230.8983
1619	230.796
1620	230.9179
1621	225.993
1622	217.765
1623	207.7613
1624	194.4631
1625	186.3377
1626	187.4638
1627	192.9065
1628	197.4871
1629	202.6932
1630	208.022
1631	217.2579
1632	224.1647
1633	224.8414
1634	221.8649
1635	219.3554
1636	225.5534
1637	240.814
1638	261.9779
1639	276.612
1640	275.9431
1641	264.3125
1642	248.8529
1643	231.9298
1644	219.4655
1645	207.2162
1646	203.3257
1647	208.3873
1648	215.1543
1649	217.3549
1650	218.6791
1651	216.7549
1652	207.092
1653	201.5496
1654	211.3399
1655	221.9386
1656	226.2744
1657	233.7226
1658	242.5692
1659	253.3156
1660	263.3516
1661	272.9597
1662	271.3212
1663	258.4374
1664	251.1954
1665	248.1273
1666	240.9104
1667	226.428
1668	204.9258
1669	195.2189
1670	204.3989
1671	219.7442
1672	231.0922
1673	225.2601
1674	218.2932
1675	220.986
1676	223.1032
1677	221.8205
1678	214.3918
1679	205.8135
1680	201.641
1681	209.1564
1682	226.8642
1683	232.8082
1684	228.3793
1685	233.5155
1686	236.5204
1687	231.516
