RamanShift	Intensity
190	3128.478
191	3091.001
192	3045.487
193	3004.147
194	2956.894
195	2917.622
196	2887.63
197	2872.608
198	2859.225
199	2824.779
200	2787.746
201	2750.245
202	2719.262
203	2676.702
204	2621.494
205	2566.296
206	2507.085
207	2460.612
208	2413.657
209	2381.864
210	2355.674
211	2334.734
212	2320.603
213	2298.782
214	2278.043
215	2251.938
216	2224.311
217	2189.594
218	2146.199
219	2102.192
220	2050.765
221	2008.541
222	1967.814
223	1938.027
224	1899.572
225	1846.714
226	1796.441
227	1743.968
228	1706.642
229	1670.672
230	1645.726
231	1614.804
232	1571.871
233	1534.487
234	1500.539
235	1481.822
236	1465.791
237	1455.253
238	1432.675
239	1391.379
240	1344.342
241	1292.376
242	1250.243
243	1211.257
244	1185.75
245	1157.635
246	1123.395
247	1091.528
248	1052.768
249	1024.484
250	1003.122
251	994.8143
252	982.4865
253	961.2913
254	937.7966
255	908.8387
256	885.2471
257	866.014
258	857.0385
259	848.8613
260	839.9323
261	829.2534
262	813.4186
263	793.6741
264	766.801
265	735.3818
266	695.2379
267	650.5805
268	606.1102
269	561.3868
270	525.6901
271	485.5645
272	455.7982
273	427.2641
274	405.5687
275	387.3639
276	367.406
277	353.8926
278	338.174
279	331.0201
280	332.4696
281	342.5687
282	346.4333
283	335.1245
284	315.3288
285	293.3746
286	271.0044
287	244.9984
288	219.9728
289	191.4077
290	159.1351
291	140.7578
292	143.0684
293	162.1031
294	172.6736
295	175.216
296	173.5935
297	167.8574
298	159.5745
299	152.2243
300	145.4148
301	137.3939
302	131.2941
303	126.8727
304	125.7515
305	129.4129
306	138.7293
307	144.8266
308	135.1169
309	119.4641
310	116.6364
311	126.3965
312	129.8935
313	119.2496
314	100.1322
315	76.81905
316	54.21585
317	36.64465
318	28.12938
319	15.68671
320	-0.2585084
321	-11.20715
322	-16.26068
323	-6.851895
324	20.57283
325	56.43447
326	80.65718
327	85.68768
328	82.90807
329	78.4664
330	70.66981
331	65.62651
332	61.81652
333	54.70908
334	48.82914
335	50.93626
336	63.23573
337	83.1928
338	106.7959
339	129.8827
340	149.4218
341	164.9648
342	193.3556
343	229.125
344	256.8507
345	267.8607
346	265.3418
347	266.7766
348	258.6465
349	240.624
350	214.7
351	185.2334
352	159.1883
353	140.7046
354	130.3309
355	135.0167
356	148.7304
357	168.325
358	177.2252
359	173.4468
360	175.911
361	192.4124
362	200.6141
363	184.3395
364	157.9862
365	143.6522
366	140.3615
367	134.3548
368	125.0951
369	113.0375
370	97.26961
371	84.72213
372	75.84245
373	75.19688
374	77.61379
375	83.96039
376	90.58562
377	95.0927
378	95.69149
379	90.84422
380	84.4701
381	83.29587
382	85.25372
383	84.70168
384	81.88905
385	79.48637
386	78.61683
387	78.35056
388	75.24697
389	77.58672
390	95.25613
391	118.7106
392	128.4493
393	120.1882
394	115.9219
395	125.6913
396	136.8779
397	141.6473
398	141.9968
399	142.4347
400	143.293
401	149.3452
402	160.3272
403	171.9296
404	181.232
405	188.4427
406	197.6352
407	204.4165
408	211.4781
409	215.2085
410	214.9476
411	210.1668
412	205.5983
413	204.7883
414	205.5578
415	206.2648
416	206.2206
417	202.0522
418	196.4736
419	196.4904
420	204.1944
421	215.0724
422	226.398
423	236.2553
424	247.6117
425	252.2697
426	250.0154
427	239.3456
428	226.5507
429	214.3894
430	196.2412
431	171.0592
432	149.5628
433	135.661
434	134.1122
435	134.2418
436	140.4689
437	152.3721
438	166.5459
439	172.7166
440	163.7014
441	151.3788
442	148.7434
443	149.304
444	143.4117
445	136.3796
446	134.9263
447	141.6174
448	155.6343
449	174.9557
450	190.5955
451	195.3404
452	190.0449
453	185.7321
454	179.0773
455	168.1457
456	157.5588
457	158.0996
458	174.3244
459	196.8028
460	217.3814
461	231.4487
462	242.3912
463	240.9499
464	228.6273
465	208.2575
466	195.3631
467	196.4884
468	199.9259
469	196.2611
470	200.7898
471	221.6437
472	253.8878
473	293.773
474	327.927
475	346.672
476	343.2064
477	338.7788
478	345.0038
479	355.1266
480	367.632
481	382.9069
482	405.7024
483	426.8036
484	440.7765
485	443.7077
486	449.0754
487	459.6068
488	465.3232
489	463.2324
490	452.3719
491	435.9776
492	416.7933
493	398.177
494	385.4899
495	373.3708
496	364.7257
497	358.1099
498	352.9744
499	348.3085
500	338.6255
501	333.0287
502	336.2876
503	347.0048
504	358.4993
505	366.4964
506	365.0857
507	352.2991
508	341.1074
509	341.493
510	342.1911
511	334.1622
512	320.3188
513	301.0484
514	282.2549
515	265.2956
516	258.1546
517	268.5399
518	297.4619
519	320.3486
520	317.4497
521	306.4323
522	312.5321
523	318.7808
524	308.5642
525	288.9566
526	276.8418
527	278.2018
528	284.9532
529	294.4179
530	317.718
531	361.1594
532	402.5569
533	429.4366
534	438.9997
535	457.8266
536	473.1309
537	478.3454
538	470.1425
539	459.4246
540	451.4041
541	441.3623
542	426.9733
543	414.9144
544	405.5387
545	402.1863
546	398.5315
547	397.1757
548	397.4286
549	397.636
550	389.5953
551	370.6941
552	344.7075
553	314.3956
554	284.0233
555	248.7851
556	218.5862
557	180.91
558	151.5267
559	134.4915
560	135.8701
561	136.0281
562	130.0925
563	132.315
564	147.973
565	165.8821
566	173.7083
567	178.6004
568	195.0548
569	212.7832
570	224.6422
571	225.5093
572	218.6634
573	204.5306
574	187.1107
575	170.2123
576	155.4813
577	142.9807
578	134.2007
579	119.6193
580	109.5241
581	107.6162
582	115.0258
583	122.3612
584	126.6894
585	124.5358
586	114.6758
587	110.1531
588	119.3384
589	133.3799
590	144.787
591	149.993
592	147.6562
593	138.5841
594	132.4201
595	130.3162
596	130.0997
597	131.3284
598	128.4973
599	119.2047
600	111.3036
601	110.1614
602	112.2396
603	112.0076
604	110.7349
605	106.2249
606	101.7678
607	102.4601
608	109.2
609	119.1187
610	129.5442
611	132.7209
612	124.7987
613	116.0878
614	115.5636
615	119.9087
616	123.9917
617	131.1645
618	143.948
619	157.5915
620	167.1069
621	169.5276
622	172.4048
623	175.2781
624	169.5268
625	152.4111
626	137.7644
627	137.2917
628	143.3848
629	145.1259
630	145.2083
631	142.3487
632	138.4687
633	139.6717
634	143.4228
635	139.1326
636	124.557
637	105.45
638	85.86474
639	75.69368
640	81.76981
641	93.75448
642	93.5672
643	94.49401
644	107.4933
645	129.8691
646	163.0967
647	195.4492
648	211.9646
649	204.7653
650	188.7379
651	169.4031
652	150.4261
653	137.6835
654	118.8832
655	78.09973
656	45.23011
657	35.28371
658	46.72358
659	51.23411
660	56.55677
661	68.64547
662	85.60935
663	104.2496
664	121.2723
665	137.8587
666	152.8684
667	166.2604
668	178.604
669	192.9924
670	217.5634
671	237.4801
672	248.7027
673	248.8053
674	254.1258
675	255.8221
676	247.8735
677	229.6363
678	203.1138
679	174.5152
680	150.7926
681	138.7835
682	131.9258
683	125.309
684	119.1133
685	107.4604
686	96.55283
687	86.57866
688	82.6087
689	80.6751
690	85.73018
691	100.7336
692	119.7351
693	125.853
694	116.5059
695	115.9644
696	129.5874
697	129.9503
698	105.7993
699	79.50922
700	68.43549
701	69.09772
702	72.42865
703	82.38538
704	96.27232
705	105.815
706	97.9384
707	81.21588
708	84.16984
709	106.6468
710	126.2541
711	136.8093
712	150.9306
713	169.7677
714	186.2411
715	197.4618
716	199.7207
717	195.7017
718	182.832
719	165.4712
720	146.8078
721	130.6373
722	118.2485
723	98.03614
724	79.10418
725	66.05929
726	63.60981
727	60.29723
728	57.3142
729	61.95251
730	75.56513
731	87.58023
732	91.71047
733	96.19742
734	107.5118
735	116.7918
736	117.4781
737	118.1176
738	135.8143
739	153.2808
740	152.6908
741	139.2986
742	135.3902
743	138.869
744	137.3536
745	130.8287
746	124.5424
747	121.5989
748	127.0564
749	142.2866
750	164.5766
751	188.736
752	206.9329
753	213.5452
754	215.7649
755	230.5843
756	243.2613
757	251.3616
758	246.3411
759	223.6525
760	196.7424
761	186.9018
762	201.1649
763	230.0711
764	268.6886
765	308.7388
766	340.7376
767	384.347
768	435.4737
769	484.1712
770	520.5638
771	543.5739
772	559.4738
773	565.3314
774	572.9006
775	579.6341
776	596.5193
777	609.8619
778	609.7359
779	601.4572
780	603.4868
781	609.4007
782	608.7941
783	600.7681
784	591.1991
785	577.8774
786	547.5865
787	503.3954
788	455.1766
789	415.2161
790	379.5725
791	352.4787
792	340.5981
793	342.4587
794	352.2513
795	357.5838
796	360.4669
797	359.2454
798	354.6518
799	350.6001
800	345.7665
801	340.2039
802	332.7372
803	318.5247
804	303.1135
805	290.9561
806	286.2465
807	283.4593
808	284.9316
809	289.019
810	296.5357
811	310.4047
812	330.4662
813	363.1254
814	405.5873
815	442.3622
816	462.7756
817	474.4754
818	487.2855
819	493.2475
820	496.2522
821	493.7935
822	491.0009
823	486.4068
824	478.0182
825	476.5211
826	493.0975
827	519.4655
828	539.3863
829	552.3353
830	573.5188
831	592.1139
832	599.8651
833	592.6561
834	580.2019
835	569.7228
836	577.7303
837	610.7204
838	658.8051
839	713.5678
840	776.4321
841	839.8586
842	904.7145
843	970.2642
844	1030.025
845	1088.112
846	1129.063
847	1162.967
848	1178.836
849	1195.247
850	1189.668
851	1167.595
852	1123.011
853	1061.799
854	996.0557
855	922.6261
856	861.0765
857	796.7596
858	752.8142
859	716.4011
860	698.0646
861	671.3573
862	644.0661
863	610.9919
864	582.4005
865	558.3802
866	545.7362
867	530.5245
868	514.5989
869	506.6876
870	508.6385
871	503.3635
872	484.1349
873	460.8935
874	438.7802
875	413.4894
876	384.781
877	360.763
878	345.5953
879	336.2562
880	322.7094
881	318.4425
882	327.7907
883	336.8302
884	325.1574
885	309.869
886	310.2406
887	318.9494
888	323.0891
889	326.3976
890	331.0543
891	336.6374
892	344.9656
893	355.476
894	370.9062
895	387.3242
896	404.8492
897	418.4817
898	429.6723
899	435.2009
900	444.2121
901	451.4841
902	447.9529
903	433.027
904	419.7349
905	412.5934
906	406.4001
907	400.4687
908	387.105
909	365.2071
910	335.2548
911	301.8387
912	267.9991
913	239.5079
914	209.7598
915	178.0227
916	158.8315
917	157.6312
918	161.5264
919	157.7187
920	154.7516
921	154.1722
922	156.6664
923	162.5449
924	165.2715
925	159.4576
926	149.9439
927	142.4248
928	136.4205
929	130.6732
930	127.3756
931	123.1828
932	124.0577
933	131.137
934	143.6716
935	158.7378
936	169.8135
937	174.5666
938	170.6154
939	168.349
940	159.0394
941	133.4075
942	102.7849
943	81.2073
944	72.82076
945	60.30264
946	52.66108
947	49.32157
948	54.96323
949	68.09581
950	86.18871
951	105.7889
952	120.1417
953	126.4878
954	123.9588
955	127.8314
956	134.845
957	134.5413
958	127.98
959	126.7862
960	132.5777
961	141.1596
962	150.847
963	160.6198
964	167.4884
965	170.3845
966	168.1929
967	166.5295
968	165.5311
969	158.8801
970	148.2666
971	144.4265
972	149.5473
973	149.6728
974	140.9425
975	126.5721
976	109.3758
977	89.47267
978	70.80766
979	58.62729
980	57.12302
981	60.65524
982	67.31618
983	80.21081
984	98.10046
985	119.0824
986	137.443
987	143.185
988	130.9187
989	112.1188
990	95.29743
991	77.5434
992	62.29015
993	50.00187
994	42.52438
995	45.59914
996	60.79966
997	94.79171
998	144.0571
999	192.0522
1000	223.9299
1001	248.6814
1002	267.7568
1003	264.822
1004	237.7644
1005	202.12
1006	173.0039
1007	146.2118
1008	124.0791
1009	102.8226
1010	80.69834
1011	61.61797
1012	47.11663
1013	41.35559
1014	44.5591
1015	50.72689
1016	54.31124
1017	68.43513
1018	95.9763
1019	123.4385
1020	141.2397
1021	153.2661
1022	160.7328
1023	161.1516
1024	156.066
1025	149.1746
1026	144.8951
1027	150.6658
1028	168.8652
1029	185.727
1030	192.4009
1031	192.716
1032	188.4411
1033	184.3151
1034	184.9122
1035	194.8413
1036	214.7917
1037	234.0156
1038	244.9641
1039	264.3653
1040	294.8086
1041	321.2925
1042	333.7114
1043	339.3014
1044	340.3027
1045	344.33
1046	355.8647
1047	382.1656
1048	419.3852
1049	450.194
1050	463.512
1051	471.9766
1052	476.7521
1053	477.9265
1054	474.864
1055	461.7776
1056	442.9829
1057	437.133
1058	450.4744
1059	469.1825
1060	485.7291
1061	495.8558
1062	495.8591
1063	496.3603
1064	497.8723
1065	500.0958
1066	499.8425
1067	487.3871
1068	466.8018
1069	452.2568
1070	451.0038
1071	457.7674
1072	472.774
1073	488.6295
1074	504.0823
1075	525.5361
1076	546.2193
1077	565.515
1078	578.3503
1079	597.3055
1080	610.1
1081	606.428
1082	587.845
1083	571.2198
1084	558.9449
1085	550.3329
1086	543.4676
1087	526.0726
1088	500.9576
1089	461.4515
1090	431.0573
1091	425.4521
1092	436.8051
1093	430.9756
1094	417.1187
1095	397.4599
1096	380.8188
1097	371.0129
1098	371.23
1099	376.2156
1100	379.4221
1101	368.1802
1102	360.4772
1103	371.0869
1104	385.0028
1105	390.5374
1106	384.7596
1107	366.5945
1108	347.063
1109	336.0452
1110	335.1237
1111	344.3042
1112	354.0203
1113	356.678
1114	354.9154
1115	349.4212
1116	342.7425
1117	336.868
1118	325.8317
1119	311.5686
1120	306.6088
1121	315.1663
1122	324.2907
1123	330.7701
1124	339.065
1125	345.556
1126	342.3585
1127	333.402
1128	340.8835
1129	361.9098
1130	380.443
1131	390.5021
1132	395.4112
1133	390.5312
1134	380.7869
1135	368.1349
1136	359.6505
1137	354.2748
1138	342.3566
1139	334.2443
1140	338.4791
1141	344.3916
1142	337.1332
1143	318.6268
1144	290.2661
1145	264.036
1146	247.4917
1147	240.6044
1148	237.8594
1149	238.6756
1150	237.9989
1151	236.0473
1152	231.7537
1153	217.2429
1154	192.3816
1155	167.182
1156	151.0515
1157	140.8307
1158	138.9497
1159	138.4541
1160	139.5112
1161	147.1175
1162	157.6011
1163	159.8999
1164	151.6278
1165	141.4353
1166	129.529
1167	112.9483
1168	99.83534
1169	95.47468
1170	103.5861
1171	116.9402
1172	134.4433
1173	156.2554
1174	165.3696
1175	151.4819
1176	125.5658
1177	107.7413
1178	91.98463
1179	75.22591
1180	62.16291
1181	52.52977
1182	54.66679
1183	70.05381
1184	85.72787
1185	93.33748
1186	103.8956
1187	117.6171
1188	125.868
1189	126.0969
1190	131.057
1191	137.862
1192	132.0421
1193	119.1473
1194	121.4218
1195	137.0606
1196	149.4656
1197	163.7268
1198	194.4585
1199	221.8317
1200	230.7124
1201	223.2177
1202	217.9218
1203	213.9717
1204	217.388
1205	221.6721
1206	220.675
1207	222.4757
1208	230.6657
1209	245.8615
1210	266.0235
1211	287.813
1212	304.1917
1213	304.8184
1214	290.0773
1215	293.0591
1216	312.1444
1217	318.6917
1218	313.1821
1219	312.6049
1220	317.9222
1221	330.5333
1222	344.4128
1223	351.9572
1224	354.8008
1225	360.7852
1226	368.3013
1227	379.1692
1228	391.4668
1229	403.7999
1230	412.7787
1231	416.9706
1232	426.7735
1233	445.1652
1234	458.9952
1235	464.4545
1236	485.5348
1237	517.3295
1238	539.6854
1239	545.1171
1240	550.6048
1241	547.4729
1242	529.212
1243	507.3591
1244	502.4709
1245	510.3065
1246	515.7183
1247	523.0653
1248	531.4053
1249	536.5632
1250	535.7619
1251	540.0171
1252	554.7559
1253	565.3256
1254	567.8567
1255	584.985
1256	615.7401
1257	638.1467
1258	640.4737
1259	628.9189
1260	601.0464
1261	563.6782
1262	527.9575
1263	500.779
1264	489.7325
1265	477.0037
1266	478.3703
1267	492.1679
1268	514.0046
1269	536.0853
1270	548.5316
1271	545.3404
1272	538.6719
1273	533.5463
1274	525.501
1275	517.6699
1276	518.1523
1277	524.3333
1278	515.4582
1279	506.8721
1280	533.1029
1281	569.9222
1282	577.6828
1283	573.6777
1284	584.2888
1285	596.8564
1286	606.437
1287	619.6942
1288	638.3281
1289	649.8548
1290	651.5978
1291	672.2851
1292	710.1104
1293	737.8396
1294	751.639
1295	778.4928
1296	810.121
1297	848.033
1298	878.827
1299	908.6865
1300	920.494
1301	918.5758
1302	895.6877
1303	858.8593
1304	809.3516
1305	758.2543
1306	712.6906
1307	687.9482
1308	677.8799
1309	684.4272
1310	687.2584
1311	682.6703
1312	664.9821
1313	641.3873
1314	624.1049
1315	606.6417
1316	575.235
1317	551.1646
1318	545.8541
1319	538.8355
1320	518.7297
1321	497.175
1322	483.2036
1323	482.1869
1324	495.2783
1325	508.8117
1326	515.0677
1327	502.872
1328	486.4507
1329	496.5345
1330	510.5556
1331	503.2981
1332	487.8594
1333	474.5872
1334	474.3294
1335	491.0363
1336	497.9789
1337	486.662
1338	468.4561
1339	455.0903
1340	466.0663
1341	493.5907
1342	507.9878
1343	512.0614
1344	515.6772
1345	517.7794
1346	523.9906
1347	526.1993
1348	521.17
1349	508.1794
1350	490.9139
1351	476.8815
1352	472.7818
1353	475.6501
1354	484.3837
1355	492.5446
1356	492.5803
1357	479.1457
1358	456.5995
1359	433.9449
1360	415.5678
1361	406.1065
1362	403.4893
1363	408.6914
1364	435.963
1365	474.6775
1366	494.8615
1367	485.5898
1368	466.7218
1369	433.9749
1370	388.3551
1371	352.0501
1372	338.4438
1373	340.2828
1374	345.7632
1375	354.2283
1376	359.4167
1377	350.8218
1378	332.016
1379	330.295
1380	332.6121
1381	299.3016
1382	254.6948
1383	226.3606
1384	217.8506
1385	223.1803
1386	231.1593
1387	231.34
1388	241.5159
1389	264.0577
1390	296.2901
1391	324.4214
1392	333.5335
1393	323.3181
1394	320.0733
1395	314.9654
1396	306.6775
1397	292.162
1398	271.1598
1399	265.3459
1400	281.8824
1401	292.2315
1402	293.1242
1403	302.314
1404	313.1554
1405	317.1256
1406	313.711
1407	308.9526
1408	301.2239
1409	291.7138
1410	292.9572
1411	309.6674
1412	331.1778
1413	352.4854
1414	377.2762
1415	397.9784
1416	415.5447
1417	424.3556
1418	431.2774
1419	436.2832
1420	444.5708
1421	453.5347
1422	462.019
1423	474.1631
1424	490.9525
1425	519.2689
1426	559.1413
1427	616.4059
1428	682.6536
1429	754.1103
1430	834.4661
1431	930.3259
1432	1012.508
1433	1064.806
1434	1102.796
1435	1119.593
1436	1134.931
1437	1139.091
1438	1135.569
1439	1127.514
1440	1128.222
1441	1129.379
1442	1126.126
1443	1120.147
1444	1111.003
1445	1088.654
1446	1060.834
1447	1047.037
1448	1050.436
1449	1052.455
1450	1061.127
1451	1076.086
1452	1085.816
1453	1084.048
1454	1096.125
1455	1120.747
1456	1120.907
1457	1094.801
1458	1072.18
1459	1044.405
1460	999.4825
1461	946.485
1462	892.4294
1463	815.277
1464	724.243
1465	650.9501
1466	614.8012
1467	568.0898
1468	531.7876
1469	496.514
1470	476.1322
1471	461.4355
1472	447.8625
1473	428.5146
1474	399.9469
1475	368.3969
1476	342.5636
1477	329.5688
1478	318.4154
1479	305.8772
1480	276.6728
1481	247.4565
1482	229.7587
1483	211.2292
1484	191.2253
1485	171.2609
1486	153.6807
1487	124.4136
1488	102.4223
1489	99.13203
1490	97.13552
1491	78.00984
1492	59.83847
1493	51.49944
1494	53.34504
1495	62.04049
1496	60.92144
1497	48.54871
1498	25.23671
1499	9.238902
1500	15.07852
1501	31.97746
1502	51.03833
1503	70.39146
1504	83.2069
1505	93.00836
1506	98.71882
1507	113.1607
1508	115.4424
1509	95.44274
1510	72.08182
1511	58.55112
1512	49.99975
1513	48.28624
1514	44.31388
1515	43.09384
1516	43.12794
1517	59.02433
1518	95.69559
1519	124.3731
1520	130.1105
1521	126.48
1522	113.1863
1523	97.9374
1524	82.41828
1525	68.20668
1526	55.17074
1527	41.95724
1528	35.72564
1529	36.70555
1530	26.95262
1531	13.26272
1532	9.427556
1533	18.44867
1534	35.40558
1535	59.86391
1536	85.14601
1537	103.4451
1538	107.45
1539	104.6846
1540	96.63857
1541	93.55236
1542	94.35873
1543	97.20023
1544	111.4914
1545	134.5543
1546	138.5531
1547	124.0505
1548	125.8492
1549	131.1271
1550	119.3527
1551	115.6855
1552	134.1598
1553	148.8627
1554	152.2491
1555	167.7093
1556	179.0979
1557	159.4046
1558	132.8529
1559	130.9524
1560	122.8211
1561	100.1581
1562	96.30157
1563	115.6507
1564	134.1798
1565	148.3661
1566	158.2559
1567	157.5717
1568	147.7933
1569	129.7572
1570	108.2113
1571	79.17964
1572	58.73351
1573	55.28594
1574	66.45638
1575	76.08662
1576	90.34756
1577	105.1021
1578	112.7469
1579	111.7487
1580	114.524
1581	119.9642
1582	129.1814
1583	139.2289
1584	148.1357
1585	160.7948
1586	172.516
1587	178.6074
1588	172.5608
1589	154.9142
1590	136.0832
1591	127.6452
1592	127.3462
1593	134.7214
1594	140.8414
1595	147.1705
1596	161.3956
1597	169.0452
1598	161.565
1599	154.7047
1600	154.1021
1601	144.394
1602	131.7342
1603	129.7955
1604	130.8294
1605	123.2968
1606	123.5124
1607	134.283
1608	132.5282
1609	120.9476
1610	118.8192
1611	122.1239
1612	123.897
1613	131.3828
1614	143.4029
1615	140.13
1616	125.1861
1617	125.1707
1618	132.5786
1619	133.8236
1620	141.2382
1621	156.5841
1622	162.3631
1623	152.776
1624	134.7048
1625	112.8366
1626	93.31617
1627	81.52083
1628	79.96743
1629	80.94171
1630	87.16365
1631	111.022
1632	127.5848
1633	111.4925
1634	83.98805
1635	64.34229
1636	61.64436
1637	78.43133
1638	95.8259
1639	112.0125
1640	124.8985
1641	137.6485
1642	149.5794
1643	142.9899
1644	120.0805
1645	101.7165
1646	90.87917
1647	86.70667
1648	86.46167
1649	88.27156
1650	100.5338
1651	118.8806
1652	131.6476
1653	137.9107
1654	141.4417
1655	141.9006
1656	140.3102
1657	136.7596
1658	132.7428
1659	128.4104
1660	131.0658
1661	144.1185
1662	148.4101
1663	138.5721
1664	129.2126
1665	123.7432
1666	123.9038
1667	120.064
1668	106.102
1669	102.7617
1670	116.622
1671	141.1107
1672	159.7123
1673	155.2203
1674	143.5808
1675	138.8225
1676	137.7599
1677	139.2094
1678	135.3521
1679	129.6237
1680	125.1321
1681	131.9906
1682	150.225
1683	157.5556
1684	156.2124
1685	168.4562
