RamanShift	Intensity
190	3762.514
191	3730.963
192	3696.824
193	3667.69
194	3631.87
195	3598.192
196	3563.688
197	3532.743
198	3503.128
199	3464.427
200	3430.57
201	3392.84
202	3360.348
203	3318.585
204	3267.529
205	3218.708
206	3166.572
207	3127.447
208	3089.798
209	3065.771
210	3042.806
211	3018.249
212	2998.04
213	2974.169
214	2953.461
215	2928.694
216	2902.634
217	2864.114
218	2808.08
219	2756.174
220	2712.453
221	2689.05
222	2666.797
223	2651.418
224	2626.527
225	2585.658
226	2539.868
227	2486.683
228	2440.99
229	2396.05
230	2362.935
231	2324.049
232	2274.681
233	2233.105
234	2194.965
235	2173.514
236	2151.997
237	2135.011
238	2108.524
239	2067.97
240	2020.605
241	1959.948
242	1906.397
243	1857.057
244	1826.071
245	1799.491
246	1775.288
247	1752.799
248	1711.727
249	1676.375
250	1655.934
251	1653.57
252	1639.88
253	1605.626
254	1565.828
255	1524.454
256	1491.32
257	1459.819
258	1438.916
259	1417.016
260	1393.641
261	1373.37
262	1352.374
263	1336.387
264	1319.438
265	1302.027
266	1269.151
267	1221.269
268	1172.731
269	1131.969
270	1099.614
271	1057.494
272	1018.336
273	970.98
274	923.2412
275	880.8247
276	846.9243
277	825.8521
278	794.5609
279	774.2745
280	765.3306
281	771.4891
282	775.8154
283	767.0991
284	755.1075
285	747.5416
286	739.111
287	720.2781
288	691.9985
289	655.8127
290	614.5817
291	581.4489
292	562.6559
293	558.0713
294	543.5865
295	525.5052
296	502.8839
297	479.7531
298	463.3183
299	458.1999
300	459.2234
301	449.0768
302	433.5501
303	416.8723
304	402.8494
305	394.9328
306	396.6865
307	398.3579
308	382.8242
309	361.1635
310	346.2453
311	340.398
312	326.4573
313	299.8321
314	271.5679
315	248.1499
316	231.1904
317	209.0635
318	190.1567
319	171.4925
320	157.0868
321	147.5317
322	139.5788
323	139.5385
324	146.0719
325	155.6032
326	155.0729
327	142.7119
328	129.1438
329	120.8307
330	113.8156
331	104.1747
332	95.01338
333	80.46016
334	66.32928
335	58.31164
336	60.11481
337	70.76242
338	88.71056
339	103.9333
340	102.6375
341	90.26371
342	89.23427
343	101.2185
344	109.8755
345	107.6166
346	100.0549
347	93.58305
348	86.6145
349	77.73071
350	70.42638
351	67.67081
352	71.03252
353	74.92422
354	73.13403
355	72.34815
356	80.14056
357	90.21646
358	90.63531
359	82.04926
360	82.64076
361	100.3259
362	116.0069
363	114.4217
364	104.5406
365	102.6942
366	104.966
367	104.3823
368	98.94238
369	85.03924
370	60.52069
371	38.57394
372	27.29588
373	29.0608
374	32.22071
375	38.27021
376	44.92295
377	49.85533
378	49.05932
379	39.49914
380	27.63617
381	21.27829
382	21.5054
383	23.09236
384	27.48366
385	37.12338
386	51.71676
387	62.70285
388	61.8103
389	58.91751
390	74.39671
391	94.98325
392	98.50787
393	80.41918
394	61.95082
395	53.49107
396	50.34687
397	48.15139
398	49.45187
399	47.34579
400	46.57217
401	53.82261
402	70.00348
403	93.07118
404	121.1968
405	143.4135
406	156.4556
407	159.1842
408	169.7518
409	179.5583
410	180.0592
411	169.0081
412	157.347
413	151.7726
414	153.8712
415	165.0491
416	179.4771
417	186.8499
418	185.6378
419	182.5864
420	178.9305
421	177.5625
422	181.3178
423	185.1979
424	186.1177
425	182.2498
426	172.0131
427	158.379
428	147.2705
429	142.3774
430	136.4146
431	125.4534
432	119.6374
433	122.6716
434	135.3359
435	150.3326
436	167.6143
437	190.5355
438	212.9565
439	224.0703
440	216.7116
441	201.7318
442	195.6025
443	190.2046
444	176.3915
445	161.1661
446	151.7009
447	152.01
448	159.4882
449	171.9531
450	182.0086
451	180.0022
452	173.9744
453	177.8618
454	186.0823
455	187.8286
456	183.7428
457	185.7692
458	198.0314
459	217.7942
460	243.8362
461	265.8717
462	284.6656
463	286.7594
464	270.2628
465	238.7922
466	217.5782
467	216.9109
468	219.3311
469	212.938
470	211.1736
471	215.2466
472	232.252
473	268.8863
474	313.5413
475	347.5072
476	359.1823
477	361.5757
478	359.8612
479	357.0312
480	363.7718
481	373.8553
482	385.5172
483	393.2585
484	391.7333
485	381.3851
486	376.7016
487	382.9521
488	389.8849
489	391.5985
490	388.9388
491	383.3674
492	374.8925
493	365.3116
494	357.0786
495	348.8907
496	342.9158
497	339.2723
498	338.2479
499	337.5494
500	331.5778
501	329.5567
502	338.1774
503	355.0956
504	375.8465
505	393.8659
506	403.0729
507	398.6682
508	386.7794
509	374.3924
510	358.7445
511	341.2668
512	322.1036
513	293.9118
514	267.8324
515	246.7849
516	239.9274
517	248.4522
518	271.8096
519	292.4233
520	295.1257
521	288.806
522	286.8642
523	284.2
524	280.4677
525	278.1503
526	280.3929
527	287.6535
528	295.8488
529	302.1758
530	312.8553
531	331.9366
532	351.5558
533	372.2254
534	384.1873
535	391.2939
536	387.0745
537	375.1931
538	356.8544
539	340.3992
540	330.9356
541	320.7818
542	302.3981
543	287.0681
544	274.1555
545	272.249
546	280.2135
547	295.165
548	303.1426
549	299.9634
550	292.4021
551	283.2254
552	274.2948
553	269.2365
554	260.9292
555	240.5575
556	214.238
557	181.3611
558	153.8082
559	139.8648
560	144.9591
561	150.3808
562	150.6017
563	156.3849
564	171.0319
565	188.4741
566	204.6714
567	215.7984
568	225.5794
569	226.93
570	220.9422
571	208.7309
572	202.4191
573	205.4218
574	206.1718
575	199.7416
576	187.3378
577	169.1868
578	150.5751
579	131.5493
580	121.3932
581	121.6619
582	133.0039
583	140.1372
584	141.3976
585	146.1367
586	156.1666
587	167.6745
588	179.2318
589	188.7278
590	199.8264
591	203.565
592	197.7962
593	184.5347
594	175.2601
595	171.5541
596	167.9618
597	164.7164
598	161.242
599	157.2072
600	152.5686
601	145.7892
602	142.725
603	149.1115
604	155.967
605	147.446
606	130.712
607	121.6005
608	124.407
609	135.8465
610	153.7799
611	163.8367
612	158.0948
613	148.9748
614	147.1127
615	149.3932
616	154.8201
617	161.1503
618	163.5494
619	161.6936
620	158.917
621	155.6056
622	153.9268
623	153.9562
624	146.348
625	127.434
626	112.2621
627	112.0395
628	119.5602
629	122.3056
630	124.9867
631	129.7614
632	133.4469
633	133.2478
634	128.2816
635	121.5608
636	114.2626
637	105.582
638	96.38218
639	92.22605
640	96.57548
641	101.691
642	94.43771
643	89.72633
644	102.5308
645	126.1128
646	149.9754
647	167.1713
648	175.6803
649	171.6121
650	164.1361
651	156.5786
652	147.5791
653	138.8871
654	122.7966
655	88.71532
656	62.93282
657	63.81708
658	81.03221
659	82.5435
660	74.87711
661	68.39268
662	66.23299
663	70.87194
664	83.27758
665	98.16701
666	112.2871
667	127.1736
668	141.1469
669	165.0773
670	213.3478
671	255.2056
672	274.4543
673	269.9479
674	273.1
675	274.4752
676	273.4645
677	267.4075
678	252.2951
679	229.8309
680	205.2603
681	185.1675
682	177.2143
683	186.7733
684	195.9303
685	184.1952
686	167.8546
687	161.998
688	163.6139
689	162.8192
690	164.6964
691	174.9788
692	188.6762
693	190.2098
694	178.6844
695	178.0847
696	193.9422
697	197.4561
698	175.9401
699	152.0744
700	143.0593
701	145.271
702	150.8529
703	162.3152
704	175.7597
705	185.6245
706	184.9845
707	178.5747
708	186.8666
709	208.2078
710	227.9229
711	239.9421
712	250.2118
713	258.7659
714	269.4251
715	285.3508
716	299.3002
717	309.6573
718	312.1166
719	310.4518
720	303.7212
721	298.8266
722	294.4451
723	288.7468
724	283.0178
725	276.25
726	269.6631
727	258.6898
728	246.8755
729	246.6527
730	262.0922
731	271.8015
732	264.5231
733	256.7687
734	260.136
735	264.7193
736	260.8086
737	258.9541
738	269.616
739	285.9615
740	300.2233
741	308.7034
742	313.7175
743	312.7115
744	312.0889
745	311.4018
746	307.9068
747	302.567
748	301.323
749	307.1444
750	322.5483
751	346.2206
752	371.46
753	394.2096
754	404.8429
755	402.64
756	394.5949
757	405.5146
758	415.8834
759	403.4442
760	378.4347
761	359.0468
762	355.7853
763	372.9856
764	408.8648
765	444.627
766	470.4707
767	505.0127
768	545.7379
769	589.4389
770	630.0364
771	659.3431
772	678.7412
773	681.0561
774	676.0049
775	660.5131
776	645.2657
777	630.9313
778	616.6504
779	611.4957
780	617.6079
781	630.5929
782	631.6606
783	622.8204
784	619.6221
785	620.3349
786	612.2775
787	592.9039
788	561.465
789	524.0505
790	490.438
791	471.0108
792	468.0824
793	479.5152
794	496.2578
795	504.6961
796	510.717
797	520.3093
798	525.7387
799	526.1978
800	520.853
801	516.7098
802	510.0635
803	496.9331
804	481.4261
805	466.4853
806	457.2752
807	450.77
808	451.3203
809	458.8208
810	473.57
811	493.1498
812	514.4922
813	544.3743
814	580.4401
815	613.1293
816	635.8975
817	642.7675
818	635.2419
819	619.3222
820	607.8654
821	602.9632
822	608.4644
823	617.439
824	611.9039
825	609.5971
826	633.2386
827	668.7293
828	696.7762
829	712.0948
830	728.5974
831	734.9671
832	727.6616
833	706.7909
834	683.3607
835	666.5414
836	662.9045
837	679.4525
838	713.975
839	761.3224
840	813.5201
841	860.3856
842	915.0327
843	981.7559
844	1040.991
845	1086.702
846	1112.01
847	1130.703
848	1136.016
849	1147.952
850	1142.643
851	1117.445
852	1068.502
853	994.853
854	923.1688
855	862.9477
856	829.5858
857	792.106
858	770.998
859	758.9186
860	759.1848
861	750.3364
862	734.5261
863	714.2082
864	693.1655
865	664.869
866	636.9681
867	613.3544
868	601.9526
869	598.7704
870	602.8799
871	604.7757
872	599.0156
873	588.3913
874	574.1148
875	552.4962
876	524.2219
877	501.4046
878	492.8934
879	489.277
880	476.5838
881	470.3311
882	477.4658
883	486.1056
884	478.8426
885	469.8741
886	475.3358
887	485.854
888	487.7652
889	487.7471
890	496.6711
891	507.6619
892	514.2739
893	514.9818
894	515.106
895	513.7722
896	513.2716
897	513.8415
898	516.4173
899	519.2545
900	519.2275
901	513.8972
902	501.3436
903	482.6885
904	462.785
905	445.8799
906	425.5762
907	404.9362
908	385.619
909	371.0897
910	354.5619
911	336.438
912	322.868
913	316.8561
914	308.6594
915	293.7815
916	281.1902
917	275.0846
918	268.5098
919	256.6406
920	244.5648
921	234.4742
922	223.0977
923	205.6854
924	193.4153
925	192.698
926	192.1871
927	176.8467
928	157.1837
929	139.083
930	130.5633
931	130.8926
932	144.5683
933	166.2233
934	188.5033
935	200.5743
936	204.2021
937	217.4511
938	224.0775
939	216.6648
940	192.8647
941	155.1878
942	119.2999
943	101.2643
944	104.3054
945	104.5071
946	102.9189
947	88.16711
948	70.98022
949	70.84334
950	86.13615
951	99.41561
952	105.5503
953	99.48229
954	84.30878
955	77.56041
956	80.6471
957	81.20388
958	79.72326
959	78.21577
960	79.98382
961	92.37097
962	114.4114
963	137.9614
964	155.5546
965	163.5831
966	157.6615
967	145.138
968	128.9954
969	113.715
970	104.5696
971	99.7388
972	100.0035
973	97.02
974	89.41758
975	81.96586
976	76.71243
977	68.39733
978	57.31836
979	49.35767
980	47.77759
981	49.63533
982	53.80881
983	58.84348
984	63.00045
985	65.69561
986	65.86763
987	62.3404
988	55.31683
989	46.58807
990	38.79616
991	33.95104
992	33.9632
993	36.46799
994	39.55437
995	41.88708
996	42.23706
997	50.02278
998	68.37612
999	94.90841
1000	124.1769
1001	148.3658
1002	159.7676
1003	154.8622
1004	135.1931
1005	113.7612
1006	101.9868
1007	88.9608
1008	71.81235
1009	54.90989
1010	40.7883
1011	33.88524
1012	35.67961
1013	42.12027
1014	48.61499
1015	49.68467
1016	41.96429
1017	46.60396
1018	72.76138
1019	100.4961
1020	117.2461
1021	132.4163
1022	148.3786
1023	159.1717
1024	163.173
1025	164.9435
1026	168.1312
1027	170.6427
1028	172.5692
1029	179.6904
1030	193.408
1031	199.2015
1032	190.3468
1033	177.1762
1034	167.4237
1035	167.0864
1036	179.3616
1037	191.6253
1038	196.3356
1039	204.888
1040	219.726
1041	238.1995
1042	256.3861
1043	276.978
1044	297.3609
1045	309.3221
1046	311.0066
1047	326.7127
1048	360.3314
1049	391.649
1050	408.5352
1051	410.0667
1052	396.5427
1053	388.2171
1054	393.0111
1055	399.8648
1056	406.0036
1057	413.5131
1058	421.596
1059	434.9265
1060	451.2505
1061	469.9329
1062	485.5343
1063	494.2566
1064	492.205
1065	487.1751
1066	478.7355
1067	462.7505
1068	442.6066
1069	419.8999
1070	402.3687
1071	387.5448
1072	383.2015
1073	386.4656
1074	401.0188
1075	427.1237
1076	454.403
1077	468.0903
1078	467.092
1079	479.4642
1080	492.2572
1081	484.5775
1082	462.8848
1083	449.6591
1084	444.6173
1085	437.7454
1086	431.0255
1087	422.8706
1088	406.7167
1089	364.5969
1090	323.3999
1091	309.2506
1092	312.0495
1093	291.6009
1094	267.8474
1095	249.9428
1096	238.929
1097	224.9409
1098	214.6348
1099	204.0806
1100	195.7358
1101	183.2019
1102	182.6036
1103	202.3264
1104	224.6926
1105	232.7162
1106	233.4942
1107	233.4702
1108	225.9886
1109	211.3058
1110	194.7258
1111	181.6653
1112	175.3554
1113	177.2429
1114	173.9774
1115	160.1673
1116	149.2361
1117	147.2229
1118	149.2151
1119	154.2888
1120	163.3009
1121	174.3654
1122	184.125
1123	189.8232
1124	195.8006
1125	198.7434
1126	190.5779
1127	177.4895
1128	185.5197
1129	211.003
1130	229.7503
1131	239.1444
1132	251.6416
1133	260.9335
1134	269.662
1135	272.1458
1136	269.3012
1137	261.9967
1138	255.9753
1139	254.3051
1140	260.8238
1141	266.7995
1142	260.8243
1143	247.9376
1144	233.3477
1145	224.1011
1146	224.5393
1147	229.8551
1148	232.8313
1149	231.9296
1150	225.1267
1151	217.0207
1152	211.5719
1153	199.9978
1154	181.4405
1155	164.9614
1156	156.1066
1157	141.743
1158	123.2684
1159	111.1409
1160	108.5904
1161	97.92693
1162	81.79236
1163	69.9899
1164	65.6166
1165	58.44714
1166	51.74498
1167	46.69924
1168	44.825
1169	40.43258
1170	41.07924
1171	54.12421
1172	72.70585
1173	87.42957
1174	93.41588
1175	92.44777
1176	83.39536
1177	73.70786
1178	59.95591
1179	42.30402
1180	26.81269
1181	16.98636
1182	16.39367
1183	25.26753
1184	40.05931
1185	55.44068
1186	69.42229
1187	78.11562
1188	80.67229
1189	76.93736
1190	78.16426
1191	82.30631
1192	73.2504
1193	57.70506
1194	57.86263
1195	72.90728
1196	86.75298
1197	100.8809
1198	121.2272
1199	137.4823
1200	145.6214
1201	147.5612
1202	156.7002
1203	166.1467
1204	174.9357
1205	179.8078
1206	179.9377
1207	180.8125
1208	186.6496
1209	199.3111
1210	217.8302
1211	235.226
1212	245.5542
1213	250.4826
1214	249.8244
1215	254.7484
1216	262.7654
1217	262.7291
1218	255.5344
1219	250.0897
1220	251.202
1221	263.4562
1222	282.3159
1223	297.3149
1224	311.4908
1225	332.5285
1226	355.1227
1227	380.1475
1228	402.6117
1229	422.0375
1230	428.6309
1231	420.2966
1232	413.2511
1233	416.3762
1234	417.3299
1235	415.5549
1236	425.0948
1237	446.6358
1238	474.3753
1239	500.0523
1240	521.0073
1241	526.6867
1242	517.8251
1243	501.9224
1244	503.7465
1245	514.4478
1246	520.4048
1247	523.5082
1248	523.3388
1249	525.6974
1250	535.3276
1251	546.5034
1252	554.8576
1253	559.2266
1254	561.0396
1255	581.4709
1256	619.0596
1257	648.4241
1258	654.9734
1259	641.7433
1260	613.0327
1261	595.6208
1262	587.5546
1263	573.5798
1264	562.2579
1265	550.3909
1266	546.8724
1267	552.8784
1268	561.598
1269	565.4697
1270	560.9917
1271	547.4081
1272	536.6773
1273	535.5128
1274	542.5152
1275	557.9252
1276	581.9519
1277	604.9352
1278	612.448
1279	609.878
1280	629.7786
1281	651.6774
1282	653.7141
1283	643.1609
1284	635.1817
1285	632.766
1286	640.3013
1287	656.7777
1288	678.0403
1289	694.7576
1290	703.2632
1291	729.9754
1292	772.8929
1293	812.8102
1294	842.6964
1295	885.3398
1296	926.1024
1297	970.3889
1298	995.6335
1299	1005.115
1300	997.0931
1301	993.1101
1302	983.6554
1303	969.8857
1304	942.2548
1305	901.34
1306	856.1417
1307	820.9979
1308	794.1077
1309	780.3732
1310	755.3596
1311	729.6839
1312	710.4507
1313	705.4147
1314	708.5185
1315	710.9094
1316	693.3414
1317	673.1724
1318	663.7117
1319	650.3051
1320	627.4089
1321	600.2468
1322	576.5117
1323	556.255
1324	546.014
1325	536.8085
1326	532.9269
1327	528.7196
1328	531.2106
1329	544.2523
1330	558.6172
1331	562.363
1332	560.8957
1333	559.5889
1334	564.1406
1335	576.0699
1336	577.0408
1337	564.4312
1338	558.5556
1339	564.7249
1340	580.3433
1341	599.7426
1342	612.8554
1343	619.4122
1344	627.4677
1345	634.3443
1346	643.5396
1347	644.2345
1348	632.6302
1349	614.9656
1350	597.2988
1351	577.7357
1352	562.2344
1353	547.8824
1354	543.6329
1355	552.0068
1356	567.4296
1357	574.0462
1358	573.3021
1359	568.7267
1360	564.5128
1361	565.7161
1362	565.7371
1363	563.7552
1364	571.4296
1365	585.541
1366	590.5275
1367	582.232
1368	569.8603
1369	548.192
1370	507.7942
1371	478.6218
1372	481.8639
1373	496.6143
1374	503.5414
1375	511.0752
1376	515.2549
1377	498.563
1378	466.3043
1379	452.1937
1380	448.086
1381	411.7814
1382	372.1453
1383	354.6014
1384	358.6143
1385	372.6475
1386	384.6306
1387	383.7484
1388	385.6086
1389	393.7701
1390	408.0551
1391	421.8218
1392	423.5212
1393	417.6681
1394	423.4941
1395	431.2171
1396	434.3481
1397	426.2552
1398	405.555
1399	394.9239
1400	403.6403
1401	407.0814
1402	403.9429
1403	406.8217
1404	415.3768
1405	429.3115
1406	436.9052
1407	425.7185
1408	415.2575
1409	422.6864
1410	439.1982
1411	458.8917
1412	474.9457
1413	483.6634
1414	495.1379
1415	508.1006
1416	527.8682
1417	545.3112
1418	553.7549
1419	564.1986
1420	587.5894
1421	615.0471
1422	638.7084
1423	659.5072
1424	676.3812
1425	709.0167
1426	756.2013
1427	823.4504
1428	895.5908
1429	963.6597
1430	1037.714
1431	1132.253
1432	1220.924
1433	1288.678
1434	1348.388
1435	1387.787
1436	1426.591
1437	1447.688
1438	1458.044
1439	1455.889
1440	1461.511
1441	1467.468
1442	1472.909
1443	1470.858
1444	1457.508
1445	1426.723
1446	1388.52
1447	1367.286
1448	1363.753
1449	1347.047
1450	1339.18
1451	1349.552
1452	1358.731
1453	1354.062
1454	1360.86
1455	1377.089
1456	1362.322
1457	1320.316
1458	1286.917
1459	1256.474
1460	1211.176
1461	1157.28
1462	1095.868
1463	1014.82
1464	926.6829
1465	852.6976
1466	810.6021
1467	753.963
1468	709.2466
1469	671.7729
1470	656.9998
1471	652.533
1472	645.2844
1473	622.3034
1474	591.8713
1475	561.0336
1476	527.2662
1477	501.4433
1478	481.596
1479	468.9496
1480	448.3607
1481	427.9299
1482	410.3484
1483	390.5853
1484	370.7917
1485	353.8861
1486	344.5477
1487	333.5927
1488	330.8746
1489	340.1517
1490	344.0006
1491	327.6669
1492	306.0813
1493	287.7538
1494	271.4469
1495	257.7875
1496	232.3211
1497	207.7246
1498	190.8346
1499	190.1844
1500	203.3643
1501	227.0959
1502	251.7354
1503	272.5889
1504	282.3167
1505	289.922
1506	294.0704
1507	307.1001
1508	307.9228
1509	285.881
1510	264.0348
1511	256.3734
1512	253.3278
1513	254.2448
1514	249.7453
1515	245.2653
1516	242.8665
1517	256.7505
1518	291.9868
1519	313.6517
1520	306.8148
1521	293.2328
1522	279.1194
1523	272.9747
1524	273.8323
1525	274.6627
1526	270.1227
1527	256.1319
1528	247.5419
1529	246.6395
1530	230.6931
1531	207.8201
1532	193.3509
1533	197.0313
1534	217.3191
1535	248.5373
1536	278.0202
1537	293.7479
1538	290.1665
1539	289.881
1540	288.2193
1541	279.7416
1542	272.4252
1543	273.258
1544	280.7924
1545	291.4149
1546	293.6688
1547	288.5363
1548	293.7575
1549	301.2366
1550	298.9336
1551	300.6084
1552	314.202
1553	324.6997
1554	325.1751
1555	321.6467
1556	308.0332
1557	273.7345
1558	244.1658
1559	242.9334
1560	242.2344
1561	230.3978
1562	234.7994
1563	257.3823
1564	281.4785
1565	298.1829
1566	304.8915
1567	296.4681
1568	277.8849
1569	252.8846
1570	231.0475
1571	212.4785
1572	208.2629
1573	217.5792
1574	231.2886
1575	232.2197
1576	229.7626
1577	226.6911
1578	216.9926
1579	204.7644
1580	194.2563
1581	196.8574
1582	217.6055
1583	244.3665
1584	265.0388
1585	280.3972
1586	286.3622
1587	293.1231
1588	294.0486
1589	287.1079
1590	282.5164
1591	288.9659
1592	295.6696
1593	298.8322
1594	301.9
1595	306.4787
1596	317.9961
1597	329.773
1598	336.7521
1599	340.1081
1600	338.9423
1601	333.8286
1602	322.9305
1603	304.733
1604	283.4063
1605	263.389
1606	251.6959
1607	251.2893
1608	250.2625
1609	250.0296
1610	253.9189
1611	259.526
1612	262.4918
1613	266.3316
1614	271.6047
1615	273.4648
1616	272.4265
1617	276.074
1618	280.888
1619	282.9202
1620	287.1427
1621	293.364
1622	283.028
1623	257.0851
1624	230.4016
1625	212.8411
1626	206.376
1627	204.3505
1628	200.4635
1629	199.1266
1630	205.0838
1631	229.2114
1632	249.0496
1633	240.1999
1634	226.3607
1635	224.6502
1636	236.1149
1637	258.4235
1638	281.6338
1639	301.3533
1640	319.5295
1641	329.0633
1642	326.7693
1643	300.9449
1644	260.126
1645	224.2815
1646	202.1671
1647	191.2861
1648	186.6421
1649	184.935
1650	199.3536
1651	222.8381
1652	232.1062
1653	234.5932
1654	242.4487
1655	251.1533
1656	259.794
1657	276.6146
1658	291.7057
1659	293.306
1660	290.0761
1661	295.189
1662	290.674
1663	276.0316
1664	268.5177
1665	269.5484
1666	271.6633
1667	271.329
1668	264.6977
1669	259.6151
1670	260.0582
1671	267.0986
1672	272.3588
1673	263.4459
1674	257.3295
1675	263.3376
1676	268.3766
1677	266.2222
1678	251.8236
1679	228.5032
1680	203.475
1681	191.5231
1682	198.1992
1683	201.1508
1684	206.5407
1685	230.9523
1686	255.0276
