RamanShift	Intensity
190	3755.69
191	3729.922
192	3688.553
193	3647.45
194	3606.466
195	3577.59
196	3559.546
197	3555.686
198	3554.858
199	3536.893
200	3516.216
201	3498.966
202	3487.129
203	3467.744
204	3438.708
205	3399.469
206	3344.15
207	3286.785
208	3227.379
209	3183.895
210	3150.973
211	3132.384
212	3127.396
213	3117.021
214	3108.026
215	3088.231
216	3060.09
217	3026.843
218	2990.967
219	2954.525
220	2907.337
221	2867.015
222	2829.389
223	2804.819
224	2780.205
225	2752.319
226	2725.9
227	2690.77
228	2658.024
229	2620.45
230	2586.555
231	2548.002
232	2505.412
233	2466.365
234	2419.423
235	2383.37
236	2350.988
237	2330.142
238	2304.458
239	2268.907
240	2228.882
241	2173.879
242	2123.978
243	2078.196
244	2048.362
245	2017.837
246	1983.561
247	1954.173
248	1918.339
249	1894.255
250	1879.255
251	1876.812
252	1865.64
253	1838.813
254	1805.714
255	1767.537
256	1734.192
257	1703.477
258	1682.552
259	1657.516
260	1627.575
261	1601.035
262	1578.033
263	1560.476
264	1534.647
265	1505.112
266	1465.575
267	1419.394
268	1372.161
269	1323.739
270	1284.816
271	1243.54
272	1214.374
273	1184.926
274	1160.52
275	1139.821
276	1118.555
277	1105.578
278	1093.719
279	1090.218
280	1089.194
281	1089.84
282	1081.924
283	1060.516
284	1032.025
285	1001.366
286	971.9692
287	934.6503
288	896.0682
289	853.6751
290	808.9952
291	778.8421
292	768.7542
293	773.0157
294	754.8619
295	724.0552
296	696.0358
297	680.4237
298	669.2639
299	655.1009
300	644.4084
301	630.7859
302	620.8341
303	615.5844
304	616.8554
305	620.5135
306	624.1885
307	619.8845
308	595.6235
309	564.8595
310	546.7641
311	545.524
312	538.6021
313	518.3666
314	495.0445
315	473.687
316	455.8566
317	434.6545
318	416.0874
319	393.6522
320	370.823
321	349.7827
322	328.8792
323	318.3348
324	317.1984
325	323.5409
326	317.2273
327	296.812
328	273.0118
329	252.5827
330	236.3089
331	220.4133
332	212.0527
333	202.6706
334	196.9169
335	193.2735
336	192.1969
337	194.9545
338	202.6712
339	206.1615
340	192.8868
341	170.7688
342	159.662
343	163.9333
344	168.0514
345	164.8843
346	157.343
347	147.4311
348	133.3083
349	112.0517
350	87.87637
351	61.87469
352	39.45937
353	20.40318
354	0.3470469
355	-4.863626
356	7.249681
357	33.73981
358	52.70176
359	60.83736
360	75.43142
361	101.6427
362	119.5516
363	118.211
364	104.6712
365	100.5009
366	101.7043
367	100.5343
368	96.05775
369	89.35432
370	80.72044
371	73.77581
372	70.27432
373	70.42502
374	69.02487
375	66.73766
376	63.84672
377	60.50873
378	54.04569
379	41.28908
380	31.50745
381	32.03717
382	40.89139
383	46.22801
384	47.62456
385	51.22854
386	58.51311
387	63.82229
388	61.05728
389	61.06232
390	81.62132
391	109.2659
392	119.5994
393	106.4969
394	93.11972
395	90.82459
396	86.80151
397	72.95383
398	54.93995
399	31.558
400	12.03283
401	1.805737
402	7.235045
403	24.4436
404	49.76639
405	76.84322
406	101.1654
407	117.2792
408	132.8332
409	140.4035
410	144.099
411	142.1956
412	134.9572
413	124.0541
414	113.8265
415	108.2788
416	107.223
417	103.0114
418	99.31982
419	100.4428
420	107.6898
421	116.9921
422	125.1857
423	134.8107
424	151.6542
425	166.5488
426	178.9606
427	181.5301
428	174.2093
429	156.4933
430	132.1754
431	107.1923
432	88.07207
433	76.43167
434	77.14365
435	77.86697
436	83.97636
437	97.7899
438	117.0025
439	135.8911
440	148.9679
441	154.232
442	157.0184
443	151.507
444	139.2975
445	125.6702
446	122.8613
447	133.6928
448	146.309
449	154.0852
450	158.0395
451	157.9321
452	155.0689
453	156.653
454	159.5296
455	158.4374
456	154.0569
457	153.3622
458	158.9216
459	165.5483
460	170.0192
461	170.6264
462	169.2849
463	161.6302
464	144.6295
465	122.0524
466	101.8063
467	90.22611
468	84.31254
469	81.14517
470	85.87604
471	93.47587
472	107.6312
473	130.4437
474	153.5272
475	165.7908
476	162.771
477	160.735
478	168.1079
479	177.253
480	184.5414
481	191.8393
482	205.7431
483	218.4776
484	222.942
485	217.9702
486	217.0497
487	224.2145
488	229.6186
489	228.1026
490	223.0126
491	220.1868
492	215.7816
493	204.91
494	191.7165
495	181.7353
496	177.7923
497	173.3656
498	166.0591
499	158.8515
500	150.147
501	146.8503
502	151.8041
503	163.5959
504	175.4758
505	183.6908
506	185.0903
507	178.0978
508	173.524
509	179.3597
510	184.4735
511	180.2543
512	170.7779
513	162.7088
514	155.7382
515	144.5723
516	134.0194
517	137.0368
518	156.8734
519	171.5119
520	164.5848
521	150.5869
522	146.5577
523	144.7642
524	136.0371
525	125.4134
526	119.1494
527	119.9921
528	121.0838
529	120.345
530	129.001
531	153.9745
532	180.3311
533	197.2574
534	203.6462
535	213.8358
536	221.3133
537	226.2453
538	225.9424
539	219.286
540	206.4532
541	190.6983
542	174.6943
543	162.2244
544	149.0339
545	143.9879
546	145.3953
547	153.9929
548	161.7618
549	165.8789
550	167.8456
551	166.9315
552	160.6382
553	148.9857
554	133.6235
555	116.302
556	98.52547
557	73.34867
558	50.9335
559	37.85341
560	39.03964
561	41.64098
562	42.35247
563	48.13399
564	60.65234
565	74.761
566	85.36051
567	93.99799
568	109.4966
569	122.4006
570	126.962
571	121.302
572	115.9261
573	113.442
574	111.0903
575	108.8541
576	102.404
577	87.52895
578	72.30017
579	59.6851
580	57.02543
581	67.20804
582	86.06371
583	93.35878
584	86.63377
585	86.15221
586	97.95824
587	109.2441
588	114.3616
589	112.1324
590	104.3407
591	92.21844
592	81.01981
593	73.21207
594	66.93909
595	64.88857
596	64.15993
597	65.16918
598	69.15927
599	75.78136
600	81.62792
601	84.5674
602	82.64258
603	76.2635
604	67.36974
605	60.45606
606	57.15062
607	53.90176
608	53.71522
609	61.32775
610	76.98219
611	90.30524
612	95.46526
613	96.11397
614	96.24712
615	95.56535
616	97.72421
617	102.0746
618	109.7856
619	116.8311
620	116.883
621	110.5056
622	110.5189
623	118.9178
624	121.7077
625	112.7923
626	96.88086
627	78.13793
628	64.3057
629	60.50135
630	65.47407
631	64.63696
632	62.87701
633	64.17442
634	69.20319
635	77.97047
636	88.81615
637	95.4526
638	94.78964
639	95.77328
640	105.72
641	113.6275
642	110.4263
643	104.7591
644	108.8838
645	120.203
646	136.1501
647	151.2674
648	158.4958
649	153.3678
650	140.2992
651	121.6934
652	104.5575
653	94.76347
654	82.6171
655	54.37312
656	34.68262
657	37.32322
658	55.68709
659	64.89518
660	68.96478
661	77.4201
662	88.45475
663	102.2272
664	115.9047
665	124.2675
666	124.7094
667	125.0758
668	130.8522
669	141.828
670	161.1151
671	176.2636
672	178.4548
673	171.8462
674	173.545
675	180.6792
676	191.2343
677	200.4117
678	200.7735
679	189.5942
680	175.6981
681	164.5448
682	157.4222
683	157.2865
684	154.4165
685	138.136
686	120.5668
687	109.8564
688	109.1548
689	110.4277
690	119.2445
691	138.1017
692	161.907
693	178.749
694	185.1076
695	202.7369
696	233.2783
697	249.5526
698	238.9555
699	220.585
700	213.1258
701	209.7344
702	204.5733
703	205.3521
704	215.9952
705	229.4048
706	229.707
707	222.9128
708	230.7178
709	251.6506
710	270.7186
711	282.6988
712	297.1717
713	314.983
714	336.4613
715	361.6741
716	385.6281
717	410.0699
718	422.9235
719	428.1686
720	420.1476
721	408.7936
722	394.2771
723	382.3463
724	374.9223
725	363.7311
726	354.8851
727	354.824
728	366.4976
729	385.071
730	406.8139
731	429.4134
732	449.5752
733	464.7297
734	476.2085
735	480.1707
736	480.826
737	479.813
738	487.4806
739	497.1865
740	504.3445
741	506.5809
742	505.093
743	500.821
744	500.8901
745	505.8637
746	509.4814
747	511.01
748	516.8401
749	528.5634
750	552.1746
751	587.7985
752	617.5065
753	629.789
754	628.7561
755	630.6922
756	628.6495
757	630.0018
758	626.8303
759	609.0479
760	588.3974
761	579.1215
762	588.4261
763	613.8498
764	649.2426
765	678.3376
766	692.0898
767	712.1638
768	740.1623
769	769.2664
770	794.0724
771	813.2217
772	830.3054
773	833.7057
774	824.4196
775	806.2133
776	794.3186
777	781.6526
778	758.0689
779	736.2154
780	719.9416
781	715.6182
782	712.5889
783	716.2799
784	730.0343
785	748.1587
786	754.5787
787	743.4182
788	728.1107
789	714.4602
790	698.3503
791	681.8917
792	673.2589
793	676.3751
794	681.1307
795	676.461
796	671.0809
797	670.3064
798	672.387
799	674.2394
800	676.6049
801	679.4983
802	681.2924
803	680.896
804	678.3481
805	674.5203
806	672.6906
807	676.9727
808	690.0809
809	714.1912
810	746.0215
811	780.5211
812	810.6951
813	846.0181
814	884.5683
815	917.5904
816	940.5169
817	944.9267
818	932.1662
819	911.7775
820	899.8309
821	896.0851
822	901.5571
823	908.4952
824	899.4648
825	888.008
826	890.2461
827	902.7629
828	916.0322
829	927.585
830	938.0426
831	941.2408
832	935.007
833	920.3561
834	905.1987
835	896.6368
836	901.9479
837	924.0096
838	949.2098
839	971.4058
840	1005.047
841	1051.272
842	1092.736
843	1120.438
844	1137.899
845	1152.883
846	1157.831
847	1158.445
848	1155.359
849	1159.745
850	1157.254
851	1138.686
852	1109.727
853	1077.321
854	1046.232
855	1007.117
856	975.6255
857	950.7104
858	942.0017
859	937.4179
860	938.9119
861	933.7259
862	922.7341
863	907.6575
864	892.1505
865	874.8218
866	861.4485
867	854.1014
868	855.7515
869	859.2798
870	861.654
871	860.859
872	855.0242
873	843.0228
874	825.3486
875	796.7433
876	757.9763
877	724.4818
878	707.5316
879	703.435
880	701.2825
881	705.3599
882	709.9185
883	712.7593
884	709.1997
885	702.5483
886	696.0913
887	694.9847
888	702.8043
889	716.3546
890	727.0938
891	734.1555
892	744.2822
893	749.4164
894	745.9375
895	732.6155
896	715.7118
897	698.2217
898	681.7844
899	671.6382
900	666.2473
901	663.9809
902	648.4583
903	619.9332
904	589.1019
905	562.4091
906	528.3231
907	492.7889
908	464.331
909	450.9817
910	445.7078
911	445.8177
912	439.5356
913	421.218
914	401.0082
915	384.9824
916	370.8509
917	358.3955
918	346.3933
919	332.3329
920	321.388
921	314.1312
922	312.6566
923	315.3454
924	316.8702
925	310.2996
926	299.7721
927	289.142
928	277.9691
929	263.6292
930	255.2096
931	256.2411
932	262.5862
933	262.7914
934	258.963
935	251.049
936	244.4099
937	248.0829
938	252.3337
939	242.1459
940	220.1584
941	188.0083
942	160.422
943	151.9313
944	159.8115
945	154.042
946	141.889
947	132.3773
948	128.8477
949	130.9233
950	137.4924
951	140.7669
952	138.8739
953	131.4306
954	121.6365
955	119.1992
956	123.2965
957	119.0866
958	109.7348
959	109.7879
960	119.1631
961	123.4175
962	121.9985
963	127.2351
964	138.2769
965	144.3537
966	142.7956
967	140.8856
968	139.3832
969	136.1857
970	131.8335
971	128.2642
972	125.7196
973	117.3337
974	103.1697
975	86.68276
976	72.20813
977	58.97559
978	48.83636
979	38.14176
980	28.5129
981	25.7872
982	32.81551
983	45.58924
984	61.09417
985	79.16976
986	95.32171
987	103.8716
988	100.8985
989	95.68376
990	92.73173
991	79.93127
992	55.6842
993	32.9183
994	20.56706
995	15.95533
996	18.96267
997	33.76879
998	58.18839
999	88.01462
1000	115.7423
1001	143.1954
1002	166.9772
1003	176.1182
1004	167.2624
1005	155.2631
1006	151.316
1007	141.3438
1008	121.9905
1009	103.8199
1010	93.47144
1011	93.2369
1012	103.2841
1013	120.6703
1014	139.7935
1015	156.2825
1016	165.5409
1017	179.3468
1018	202.2594
1019	213.1651
1020	202.9979
1021	195.715
1022	204.6375
1023	218.2947
1024	231.0393
1025	243.694
1026	254.4921
1027	267.9107
1028	284.2852
1029	298.0681
1030	305.6157
1031	301.8674
1032	286.6406
1033	275.9051
1034	279.8513
1035	290.8726
1036	304.8596
1037	321.3655
1038	336.1081
1039	351.3547
1040	365.7079
1041	381.4288
1042	396.2372
1043	403.4453
1044	400.3458
1045	397.9558
1046	401.8636
1047	417.4741
1048	443.9232
1049	473.1786
1050	497.0948
1051	512.5255
1052	516.8535
1053	525.4869
1054	540.9664
1055	558.3585
1056	574.0955
1057	595.2766
1058	619.1111
1059	650.5157
1060	681.4404
1061	708.9392
1062	723.801
1063	728.9503
1064	719.7513
1065	697.2245
1066	666.5047
1067	635.1128
1068	612.7546
1069	590.8162
1070	577.3259
1071	566.2512
1072	564.6768
1073	573.2731
1074	591.001
1075	608.2798
1076	618.2185
1077	619.0504
1078	611.1082
1079	610.4399
1080	612.1939
1081	605.3911
1082	591.8558
1083	574.761
1084	559.1718
1085	549.6405
1086	540.2145
1087	512.3246
1088	471.3974
1089	414.7243
1090	367.6915
1091	340.1289
1092	331.5288
1093	302.848
1094	274.1006
1095	245.7139
1096	225.8917
1097	205.8287
1098	192.3614
1099	176.1378
1100	164.6594
1101	153.4054
1102	152.3834
1103	162.8511
1104	177.7899
1105	187.8056
1106	192.1717
1107	190.8418
1108	183.5627
1109	173.3173
1110	162.5549
1111	154.6485
1112	146.6701
1113	137.7096
1114	121.0513
1115	96.95345
1116	84.01742
1117	90.50564
1118	100.5402
1119	108.9238
1120	124.8743
1121	146.2554
1122	163.0866
1123	170.8716
1124	180.297
1125	189.4416
1126	196.3851
1127	201.6535
1128	215.8912
1129	235.6354
1130	256.5587
1131	271.5473
1132	282.5209
1133	284.061
1134	281.9674
1135	278.9782
1136	289.1076
1137	299.7569
1138	292.8772
1139	278.1069
1140	273.205
1141	274.5582
1142	277.5352
1143	278.1978
1144	268.1738
1145	262.1661
1146	271.2485
1147	287.4468
1148	303.222
1149	302.6644
1150	276.7154
1151	249.9058
1152	240.7894
1153	232.0971
1154	219.4704
1155	208.3686
1156	202.3792
1157	203.1951
1158	210.0426
1159	211.837
1160	205.3188
1161	195.9028
1162	184.2026
1163	163.6627
1164	140.8003
1165	124.1949
1166	116.0261
1167	101.4317
1168	87.60004
1169	76.66066
1170	73.20598
1171	69.73723
1172	74.21624
1173	92.26138
1174	105.1217
1175	89.33943
1176	68.66327
1177	70.15107
1178	74.72592
1179	67.27471
1180	58.88281
1181	54.96178
1182	54.6737
1183	57.75694
1184	67.64867
1185	82.36086
1186	86.66874
1187	76.18827
1188	70.13133
1189	72.73589
1190	73.90047
1191	70.85823
1192	58.45402
1193	43.38235
1194	40.94211
1195	51.64314
1196	61.7465
1197	72.6087
1198	87.61786
1199	98.81342
1200	104.271
1201	101.1358
1202	94.43518
1203	88.51975
1204	90.01621
1205	96.62348
1206	104.4664
1207	114.0724
1208	123.8318
1209	141.7635
1210	167.9355
1211	188.6657
1212	194.5667
1213	183.8943
1214	162.1539
1215	163.5605
1216	189.1538
1217	209.4748
1218	220.5388
1219	231.2872
1220	240.9131
1221	261.3169
1222	279.7607
1223	288.6581
1224	284.823
1225	275.8164
1226	268.4818
1227	272.1812
1228	288.4313
1229	314.3636
1230	338.3969
1231	350.8811
1232	361.7205
1233	373.7415
1234	378.8422
1235	376.2227
1236	383.7241
1237	400.1315
1238	407.8287
1239	407.7878
1240	422.3813
1241	441.0326
1242	442.2573
1243	433.8705
1244	439.8516
1245	450.0728
1246	454.0558
1247	457.0022
1248	463.9427
1249	471.1599
1250	476.5814
1251	483.7524
1252	493.5439
1253	495.5026
1254	489.627
1255	508.6725
1256	552.8862
1257	584.4178
1258	589.6639
1259	582.6915
1260	566.4887
1261	563.127
1262	566.6793
1263	562.678
1264	553.7121
1265	538.2933
1266	529.4719
1267	536.9207
1268	548.8613
1269	554.5729
1270	551.9108
1271	540.7224
1272	542.5364
1273	563.9917
1274	586.0561
1275	603.3413
1276	633.0096
1277	661.9742
1278	668.4175
1279	661.1212
1280	685.207
1281	715.3781
1282	719.8474
1283	715.1857
1284	726.2789
1285	742.7313
1286	758.53
1287	791.2935
1288	844.3439
1289	886.0568
1290	903.4628
1291	944.9532
1292	1010.343
1293	1082.314
1294	1144.005
1295	1211.276
1296	1265.77
1297	1332.418
1298	1380.447
1299	1424.357
1300	1431.637
1301	1408.309
1302	1362.38
1303	1317.262
1304	1261.789
1305	1201.076
1306	1127.362
1307	1058.023
1308	1002.146
1309	973.6426
1310	938.6548
1311	905.8533
1312	861.5023
1313	824.9354
1314	798.5063
1315	779.9742
1316	745.7581
1317	714.8503
1318	693.7296
1319	672.4153
1320	645.1642
1321	615.1635
1322	591.1307
1323	581.1113
1324	588.1187
1325	589.4897
1326	587.1531
1327	586.4905
1328	588.7114
1329	596.5884
1330	600.4957
1331	592.2336
1332	574.7777
1333	553.9892
1334	548.2704
1335	565.1951
1336	570.8617
1337	558.2984
1338	555.2814
1339	565.7158
1340	582.0579
1341	599.9238
1342	617.542
1343	624.6942
1344	617.0646
1345	609.0884
1346	620.236
1347	629.4922
1348	625.6368
1349	611.8721
1350	592.4042
1351	574.3122
1352	564.5739
1353	559.3235
1354	559.4048
1355	555.2838
1356	549.8991
1357	543.9423
1358	539.6876
1359	537.6685
1360	535.127
1361	529.8613
1362	530.8865
1363	540.4377
1364	551.8341
1365	557.8148
1366	552.4352
1367	529.7103
1368	489.7461
1369	441.2177
1370	386.0669
1371	350.8101
1372	341.9563
1373	356.3119
1374	379.188
1375	399.6732
1376	405.8921
1377	399.1422
1378	381.1536
1379	371.13
1380	359.3417
1381	314.9758
1382	264.3247
1383	231.0323
1384	222.0471
1385	229.7598
1386	240.4753
1387	240.9376
1388	248.3472
1389	263.5786
1390	277.3969
1391	284.7192
1392	288.5877
1393	287.1179
1394	285.9991
1395	285.4936
1396	289.1698
1397	287.4662
1398	275.6397
1399	269.7007
1400	274.0508
1401	262.2967
1402	240.0594
1403	240.772
1404	257.4836
1405	258.1545
1406	252.4956
1407	252.0631
1408	258.3819
1409	272.7059
1410	294.2681
1411	318.654
1412	335.0346
1413	340.7412
1414	357.5823
1415	377.0952
1416	386.0338
1417	388.0301
1418	396.7982
1419	409.6191
1420	425.512
1421	453.9546
1422	494.2138
1423	543.7113
1424	597.0735
1425	679.1785
1426	781.4755
1427	917.2722
1428	1061.643
1429	1213.963
1430	1368.513
1431	1536.574
1432	1703.478
1433	1855.124
1434	1990.519
1435	2073.88
1436	2138.257
1437	2158.109
1438	2178.043
1439	2172.606
1440	2153.547
1441	2127.3
1442	2109.663
1443	2093.919
1444	2077.596
1445	2038.895
1446	1985.988
1447	1940.45
1448	1915.781
1449	1894.132
1450	1885.506
1451	1877.568
1452	1874.376
1453	1873.731
1454	1886.542
1455	1903.731
1456	1880.938
1457	1819.477
1458	1757.076
1459	1689.942
1460	1597.898
1461	1500.125
1462	1403.337
1463	1286.281
1464	1162.711
1465	1056.885
1466	992.8105
1467	909.1274
1468	837.1033
1469	760.3104
1470	705.938
1471	661.5612
1472	625.5931
1473	590.0225
1474	547.8246
1475	506.038
1476	467.7086
1477	442.7909
1478	416.3431
1479	393.394
1480	359.8762
1481	334.7639
1482	326.3099
1483	320.0523
1484	311.7537
1485	304.3283
1486	295.2318
1487	271.0211
1488	245.1303
1489	229.5451
1490	217.37
1491	200.4704
1492	185.39
1493	176.1483
1494	176.9516
1495	179.3181
1496	152.6088
1497	110.8126
1498	75.6898
1499	59.27702
1500	65.15192
1501	84.18311
1502	106.8748
1503	140.9664
1504	174.617
1505	202.6419
1506	212.216
1507	213.4632
1508	197.7212
1509	172.1168
1510	142.3394
1511	119.5297
1512	104.7133
1513	103.6863
1514	107.4689
1515	117.4526
1516	124.8147
1517	146.1653
1518	188.7606
1519	216.2256
1520	212.3336
1521	197.9499
1522	177.5729
1523	161.3634
1524	147.8205
1525	129.3035
1526	109.5221
1527	89.79668
1528	84.35028
1529	94.12275
1530	89.8582
1531	76.9221
1532	72.42019
1533	81.17099
1534	102.2939
1535	131.8855
1536	159.6357
1537	163.0904
1538	140.4352
1539	130.2339
1540	129.9667
1541	123.6744
1542	117.8339
1543	113.4102
1544	126.4924
1545	157.3596
1546	174.0055
1547	170.5479
1548	171.6217
1549	172.2381
1550	169.659
1551	174.1829
1552	190.9392
1553	201.5409
1554	200.6134
1555	208.4826
1556	214.3529
1557	197.3528
1558	177.6564
1559	179.4358
1560	171.9223
1561	146.886
1562	143.2566
1563	163.3233
1564	174.3377
1565	173.8195
1566	163.0091
1567	150.769
1568	146.5167
1569	140.8564
1570	132.9977
1571	121.426
1572	116.08
1573	129.8739
1574	142.1588
1575	130.5483
1576	111.7148
1577	96.56498
1578	83.91212
1579	77.63563
1580	67.69358
1581	67.61646
1582	84.26155
1583	109.799
1584	134.4171
1585	153.688
1586	161.1921
1587	168.609
1588	165.4989
1589	147.0603
1590	127.6786
1591	121.6716
1592	123.0086
1593	131.2366
1594	142.9975
1595	158.7478
1596	184.2834
1597	200.5286
1598	196.6687
1599	191.4157
1600	191.7355
1601	185.1445
1602	172.2298
1603	155.7855
1604	142.3952
1605	136.3167
1606	138.3434
1607	145.2071
1608	142.0253
1609	133.8871
1610	141.2924
1611	153.1819
1612	154.5932
1613	155.9495
1614	161.4311
1615	168.4326
1616	172.3981
1617	166.7928
1618	158.6524
1619	158.7633
1620	168.0111
1621	183.0643
1622	185.9272
1623	172.6326
1624	154.0312
1625	138.5211
1626	134.2661
1627	130.4017
1628	120.8572
1629	112.6709
1630	112.5041
1631	129.0289
1632	145.3226
1633	139.5973
1634	128.0677
1635	122.6672
1636	127.2554
1637	141.2641
1638	156.4223
1639	165.789
1640	165.1057
1641	162.2063
1642	162.5308
1643	158.5795
1644	151.3058
1645	144.75
1646	139.6707
1647	135.2176
1648	130.7322
1649	127.8724
1650	136.2478
1651	153.0944
1652	164.6829
1653	174.2436
1654	187.0491
1655	189.9174
1656	180.6261
1657	177.9432
1658	180.8868
1659	178.0842
1660	178.2771
1661	186.9841
1662	190.077
1663	184.9621
1664	186.9008
1665	191.9217
1666	189.9943
1667	188.4352
1668	192.3142
1669	202.0867
1670	214.1642
1671	225.3178
1672	220.2525
1673	186.79
1674	157.7038
1675	155.5629
1676	155.8186
1677	156.9898
1678	158.145
1679	160.3253
1680	162.9377
1681	173.7307
1682	190.7699
1683	190.6975
1684	181.6273
1685	196.7959
